FPE IR                   SPECTRUM    ASCII       PEDS        1.60
  -1
~SP.SP
18/03/14
13:44:51.00
18/03/14
13:44:51.00
pili

650.000000
4









SPECTRUM 100,CPU32 MAIN 00.02.8200 12-DECEMBER-2006 10:00:00
MIR TGS
MIR
OPTKBR
78890
0.200000

4.000000
STRONG
RATIO
SPECTRUM
MAGNITUDE
UNIVERSAL ATR
DOUBLE

COMBINED


0


#HDR
-1
-1
#GR
CM-1
%T
0.00002384185791015625
0.0
4000.000000
-1.000000
3351
8
100.094014
97.365319
#DATA
4000.000000	99.856949
3999.000000	99.856030
3998.000000	99.858236
3997.000000	99.861714
3996.000000	99.867809
3995.000000	99.864719
3994.000000	99.856904
3993.000000	99.846701
3992.000000	99.836589
3991.000000	99.827930
3990.000000	99.821326
3989.000000	99.817714
3988.000000	99.818753
3987.000000	99.825738
3986.000000	99.837919
3985.000000	99.851925
3984.000000	99.863271
3983.000000	99.869063
3982.000000	99.869756
3981.000000	99.868513
3980.000000	99.868547
3979.000000	99.870541
3978.000000	99.872090
3977.000000	99.869386
3976.000000	99.859853
3975.000000	99.843814
3974.000000	99.824513
3973.000000	99.807008
3972.000000	99.796505
3971.000000	99.796125
3970.000000	99.804929
3969.000000	99.818301
3968.000000	99.831242
3967.000000	99.841436
3966.000000	99.848980
3965.000000	99.853790
3964.000000	99.854791
3963.000000	99.852323
3962.000000	99.850236
3961.000000	99.853560
3960.000000	99.863374
3959.000000	99.874482
3958.000000	99.879010
3957.000000	99.873184
3956.000000	99.861035
3955.000000	99.851252
3954.000000	99.849746
3953.000000	99.855184
3952.000000	99.861307
3951.000000	99.863116
3950.000000	99.860765
3949.000000	99.858287
3948.000000	99.859002
3947.000000	99.862095
3946.000000	99.863337
3945.000000	99.858905
3944.000000	99.848986
3943.000000	99.838293
3942.000000	99.832483
3941.000000	99.832785
3940.000000	99.835275
3939.000000	99.835797
3938.000000	99.834300
3937.000000	99.833752
3936.000000	99.835942
3935.000000	99.839615
3934.000000	99.842616
3933.000000	99.844733
3932.000000	99.847505
3931.000000	99.851007
3930.000000	99.852245
3929.000000	99.848220
3928.000000	99.840574
3927.000000	99.835991
3926.000000	99.840278
3925.000000	99.851407
3924.000000	99.860487
3923.000000	99.860432
3922.000000	99.852064
3921.000000	99.841604
3920.000000	99.833806
3919.000000	99.828604
3918.000000	99.823754
3917.000000	99.818878
3916.000000	99.815864
3915.000000	99.816583
3914.000000	99.821909
3913.000000	99.831860
3912.000000	99.845313
3911.000000	99.858898
3910.000000	99.867258
3909.000000	99.865845
3908.000000	99.854475
3907.000000	99.838847
3906.000000	99.827648
3905.000000	99.825871
3904.000000	99.830787
3903.000000	99.835976
3902.000000	99.838811
3901.000000	99.842441
3900.000000	99.850605
3899.000000	99.862014
3898.000000	99.871225
3897.000000	99.873772
3896.000000	99.869680
3895.000000	99.862059
3894.000000	99.853560
3893.000000	99.844854
3892.000000	99.837909
3891.000000	99.838518
3890.000000	99.850833
3889.000000	99.871170
3888.000000	99.889833
3887.000000	99.896367
3886.000000	99.884570
3885.000000	99.857309
3884.000000	99.824969
3883.000000	99.798954
3882.000000	99.787729
3881.000000	99.794341
3880.000000	99.814558
3879.000000	99.838621
3878.000000	99.857382
3877.000000	99.868464
3876.000000	99.876045
3875.000000	99.883791
3874.000000	99.889681
3873.000000	99.889429
3872.000000	99.883558
3871.000000	99.879383
3870.000000	99.884517
3869.000000	99.897599
3868.000000	99.908508
3867.000000	99.909022
3866.000000	99.899477
3865.000000	99.885379
3864.000000	99.872254
3863.000000	99.863544
3862.000000	99.860277
3861.000000	99.861476
3860.000000	99.865576
3859.000000	99.871715
3858.000000	99.879030
3857.000000	99.885494
3856.000000	99.890422
3855.000000	99.898774
3854.000000	99.910592
3853.000000	99.916905
3852.000000	99.913722
3851.000000	99.904786
3850.000000	99.896349
3849.000000	99.891763
3848.000000	99.888147
3847.000000	99.880758
3846.000000	99.869381
3845.000000	99.860213
3844.000000	99.861646
3843.000000	99.876591
3842.000000	99.898834
3841.000000	99.916922
3840.000000	99.921256
3839.000000	99.910231
3838.000000	99.891358
3837.000000	99.874046
3836.000000	99.862369
3835.000000	99.856093
3834.000000	99.854680
3833.000000	99.858491
3832.000000	99.867120
3831.000000	99.877993
3830.000000	99.887866
3829.000000	99.895574
3828.000000	99.902887
3827.000000	99.911850
3826.000000	99.921121
3825.000000	99.925788
3824.000000	99.921591
3823.000000	99.909719
3822.000000	99.896130
3821.000000	99.888261
3820.000000	99.891561
3819.000000	99.902933
3818.000000	99.912385
3817.000000	99.912662
3816.000000	99.904170
3815.000000	99.891480
3814.000000	99.877796
3813.000000	99.865401
3812.000000	99.857650
3811.000000	99.857607
3810.000000	99.865316
3809.000000	99.877121
3808.000000	99.888141
3807.000000	99.896449
3806.000000	99.904383
3805.000000	99.914177
3804.000000	99.924136
3803.000000	99.929589
3802.000000	99.927761
3801.000000	99.922598
3800.000000	99.919293
3799.000000	99.916646
3798.000000	99.909950
3797.000000	99.897235
3796.000000	99.881842
3795.000000	99.869057
3794.000000	99.860339
3793.000000	99.853165
3792.000000	99.845330
3791.000000	99.838407
3790.000000	99.837287
3789.000000	99.846008
3788.000000	99.863515
3787.000000	99.883020
3786.000000	99.895752
3785.000000	99.896633
3784.000000	99.887069
3783.000000	99.872432
3782.000000	99.857987
3781.000000	99.846544
3780.000000	99.838234
3779.000000	99.833099
3778.000000	99.832759
3777.000000	99.837858
3776.000000	99.845864
3775.000000	99.851863
3774.000000	99.851285
3773.000000	99.843741
3772.000000	99.834888
3771.000000	99.832320
3770.000000	99.838238
3769.000000	99.847403
3768.000000	99.852946
3767.000000	99.853033
3766.000000	99.851785
3765.000000	99.854104
3764.000000	99.860647
3763.000000	99.869141
3762.000000	99.879119
3761.000000	99.891358
3760.000000	99.902990
3759.000000	99.908375
3758.000000	99.905906
3757.000000	99.899757
3756.000000	99.895416
3755.000000	99.896291
3754.000000	99.903377
3753.000000	99.914772
3752.000000	99.924537
3751.000000	99.928054
3750.000000	99.930145
3749.000000	99.937007
3748.000000	99.946170
3747.000000	99.949832
3746.000000	99.942386
3745.000000	99.926207
3744.000000	99.908575
3743.000000	99.891591
3742.000000	99.874523
3741.000000	99.860358
3740.000000	99.851724
3739.000000	99.847470
3738.000000	99.846351
3737.000000	99.849854
3736.000000	99.858160
3735.000000	99.867800
3734.000000	99.875458
3733.000000	99.879934
3732.000000	99.881073
3731.000000	99.878285
3730.000000	99.870936
3729.000000	99.860169
3728.000000	99.849099
3727.000000	99.840726
3726.000000	99.835876
3725.000000	99.834532
3724.000000	99.838161
3723.000000	99.848385
3722.000000	99.863383
3721.000000	99.876620
3720.000000	99.880823
3719.000000	99.874244
3718.000000	99.862666
3717.000000	99.854520
3716.000000	99.854547
3715.000000	99.862499
3714.000000	99.875839
3713.000000	99.891001
3712.000000	99.902548
3711.000000	99.906776
3710.000000	99.905449
3709.000000	99.902656
3708.000000	99.901218
3707.000000	99.901726
3706.000000	99.902550
3705.000000	99.900409
3704.000000	99.892347
3703.000000	99.878637
3702.000000	99.864379
3701.000000	99.856672
3700.000000	99.857257
3699.000000	99.860781
3698.000000	99.861548
3697.000000	99.858695
3696.000000	99.854844
3695.000000	99.852846
3694.000000	99.855211
3693.000000	99.864590
3692.000000	99.881048
3691.000000	99.897983
3690.000000	99.905336
3689.000000	99.901740
3688.000000	99.895902
3687.000000	99.893268
3686.000000	99.892522
3685.000000	99.891093
3684.000000	99.886816
3683.000000	99.878564
3682.000000	99.868443
3681.000000	99.862930
3680.000000	99.868406
3679.000000	99.884193
3678.000000	99.901821
3677.000000	99.912028
3676.000000	99.912029
3675.000000	99.910497
3674.000000	99.915136
3673.000000	99.919551
3672.000000	99.914024
3671.000000	99.899123
3670.000000	99.883555
3669.000000	99.873690
3668.000000	99.866300
3667.000000	99.854542
3666.000000	99.839564
3665.000000	99.830899
3664.000000	99.835766
3663.000000	99.850498
3662.000000	99.863227
3661.000000	99.865070
3660.000000	99.856981
3659.000000	99.847347
3658.000000	99.845454
3657.000000	99.855549
3656.000000	99.874139
3655.000000	99.892507
3654.000000	99.903159
3653.000000	99.905349
3652.000000	99.904244
3651.000000	99.902840
3650.000000	99.894548
3649.000000	99.873872
3648.000000	99.849713
3647.000000	99.835082
3646.000000	99.832693
3645.000000	99.835893
3644.000000	99.837734
3643.000000	99.837365
3642.000000	99.839496
3641.000000	99.849184
3640.000000	99.867044
3639.000000	99.887742
3638.000000	99.902135
3637.000000	99.902897
3636.000000	99.890800
3635.000000	99.875640
3634.000000	99.867511
3633.000000	99.866318
3632.000000	99.862348
3631.000000	99.848116
3630.000000	99.828352
3629.000000	99.815988
3628.000000	99.819030
3627.000000	99.829995
3626.000000	99.835931
3625.000000	99.834301
3624.000000	99.832632
3623.000000	99.839053
3622.000000	99.855320
3621.000000	99.875452
3620.000000	99.889009
3619.000000	99.889245
3618.000000	99.878854
3617.000000	99.865164
3616.000000	99.854784
3615.000000	99.852766
3614.000000	99.859697
3613.000000	99.868776
3612.000000	99.870006
3611.000000	99.858648
3610.000000	99.839986
3609.000000	99.824601
3608.000000	99.818945
3607.000000	99.821571
3606.000000	99.827074
3605.000000	99.831497
3604.000000	99.833938
3603.000000	99.835386
3602.000000	99.837473
3601.000000	99.842172
3600.000000	99.850770
3599.000000	99.862443
3598.000000	99.873651
3597.000000	99.879909
3596.000000	99.878801
3595.000000	99.871923
3594.000000	99.863641
3593.000000	99.857210
3592.000000	99.852200
3591.000000	99.846334
3590.000000	99.838978
3589.000000	99.831136
3588.000000	99.823307
3587.000000	99.817249
3586.000000	99.816239
3585.000000	99.820485
3584.000000	99.827301
3583.000000	99.835015
3582.000000	99.843721
3581.000000	99.853326
3580.000000	99.862692
3579.000000	99.870684
3578.000000	99.876329
3577.000000	99.877377
3576.000000	99.870755
3575.000000	99.856622
3574.000000	99.841327
3573.000000	99.833725
3572.000000	99.837638
3571.000000	99.849064
3570.000000	99.861122
3569.000000	99.869858
3568.000000	99.874846
3567.000000	99.877749
3566.000000	99.881445
3565.000000	99.886132
3564.000000	99.887864
3563.000000	99.882579
3562.000000	99.870392
3561.000000	99.856630
3560.000000	99.848965
3559.000000	99.851971
3558.000000	99.864257
3557.000000	99.880718
3556.000000	99.896655
3555.000000	99.908850
3554.000000	99.914078
3553.000000	99.909674
3552.000000	99.897143
3551.000000	99.882884
3550.000000	99.873713
3549.000000	99.872813
3548.000000	99.879128
3547.000000	99.888057
3546.000000	99.892798
3545.000000	99.888065
3544.000000	99.874727
3543.000000	99.860194
3542.000000	99.852501
3541.000000	99.853291
3540.000000	99.856811
3539.000000	99.855841
3538.000000	99.848171
3537.000000	99.837533
3536.000000	99.829875
3535.000000	99.829418
3534.000000	99.837164
3533.000000	99.851139
3532.000000	99.867495
3531.000000	99.881866
3530.000000	99.890398
3529.000000	99.890168
3528.000000	99.880041
3527.000000	99.862527
3526.000000	99.844434
3525.000000	99.833907
3524.000000	99.835346
3523.000000	99.846869
3522.000000	99.863007
3521.000000	99.879171
3520.000000	99.892962
3519.000000	99.902334
3518.000000	99.904917
3517.000000	99.900261
3516.000000	99.891690
3515.000000	99.883882
3514.000000	99.878310
3513.000000	99.872598
3512.000000	99.865224
3511.000000	99.859287
3510.000000	99.859555
3509.000000	99.866026
3508.000000	99.872854
3507.000000	99.874494
3506.000000	99.871249
3505.000000	99.867507
3504.000000	99.866180
3503.000000	99.866904
3502.000000	99.869271
3501.000000	99.874475
3500.000000	99.882327
3499.000000	99.888566
3498.000000	99.887374
3497.000000	99.877317
3496.000000	99.864162
3495.000000	99.856701
3494.000000	99.859675
3493.000000	99.870615
3492.000000	99.882610
3491.000000	99.888975
3490.000000	99.886279
3489.000000	99.875404
3488.000000	99.861076
3487.000000	99.849508
3486.000000	99.844599
3485.000000	99.845567
3484.000000	99.848372
3483.000000	99.849463
3482.000000	99.848770
3481.000000	99.849775
3480.000000	99.856756
3479.000000	99.871044
3478.000000	99.888735
3477.000000	99.901910
3476.000000	99.903361
3475.000000	99.891799
3474.000000	99.873013
3473.000000	99.855736
3472.000000	99.846168
3471.000000	99.845121
3470.000000	99.848580
3469.000000	99.850699
3468.000000	99.847715
3467.000000	99.840569
3466.000000	99.834119
3465.000000	99.833597
3464.000000	99.841426
3463.000000	99.855799
3462.000000	99.870652
3461.000000	99.878044
3460.000000	99.873979
3459.000000	99.863936
3458.000000	99.860403
3457.000000	99.871389
3456.000000	99.891302
3455.000000	99.905463
3454.000000	99.904661
3453.000000	99.892914
3452.000000	99.879902
3451.000000	99.869145
3450.000000	99.857177
3449.000000	99.843369
3448.000000	99.835599
3447.000000	99.843268
3446.000000	99.866301
3445.000000	99.894243
3444.000000	99.915346
3443.000000	99.923669
3442.000000	99.919100
3441.000000	99.905378
3440.000000	99.889571
3439.000000	99.879451
3438.000000	99.877076
3437.000000	99.875962
3436.000000	99.868494
3435.000000	99.855960
3434.000000	99.847358
3433.000000	99.847405
3432.000000	99.849833
3431.000000	99.845861
3430.000000	99.836428
3429.000000	99.831569
3428.000000	99.838051
3427.000000	99.851608
3426.000000	99.862931
3425.000000	99.868086
3424.000000	99.870358
3423.000000	99.873098
3422.000000	99.874130
3421.000000	99.869050
3420.000000	99.859022
3419.000000	99.852626
3418.000000	99.858231
3417.000000	99.874656
3416.000000	99.890639
3415.000000	99.894510
3414.000000	99.884427
3413.000000	99.868890
3412.000000	99.857867
3411.000000	99.854873
3410.000000	99.857131
3409.000000	99.860593
3408.000000	99.862968
3407.000000	99.863532
3406.000000	99.862915
3405.000000	99.863548
3404.000000	99.868141
3403.000000	99.876074
3402.000000	99.882253
3401.000000	99.881438
3400.000000	99.874146
3399.000000	99.867206
3398.000000	99.867645
3397.000000	99.876004
3396.000000	99.886041
3395.000000	99.890845
3394.000000	99.888827
3393.000000	99.883775
3392.000000	99.880052
3391.000000	99.878733
3390.000000	99.878469
3389.000000	99.878544
3388.000000	99.879492
3387.000000	99.881183
3386.000000	99.882462
3385.000000	99.883591
3384.000000	99.887231
3383.000000	99.894656
3382.000000	99.901412
3381.000000	99.899404
3380.000000	99.884690
3379.000000	99.862360
3378.000000	99.842633
3377.000000	99.832771
3376.000000	99.833618
3375.000000	99.842682
3374.000000	99.857668
3373.000000	99.875824
3372.000000	99.891966
3371.000000	99.900565
3370.000000	99.901153
3369.000000	99.899974
3368.000000	99.903695
3367.000000	99.911277
3366.000000	99.914200
3365.000000	99.906063
3364.000000	99.890349
3363.000000	99.876699
3362.000000	99.870742
3361.000000	99.870284
3360.000000	99.870968
3359.000000	99.871709
3358.000000	99.872986
3357.000000	99.872991
3356.000000	99.868920
3355.000000	99.861201
3354.000000	99.853739
3353.000000	99.850045
3352.000000	99.850728
3351.000000	99.853903
3350.000000	99.856173
3349.000000	99.854273
3348.000000	99.848618
3347.000000	99.845045
3346.000000	99.850003
3345.000000	99.863298
3344.000000	99.877925
3343.000000	99.887653
3342.000000	99.892312
3341.000000	99.894894
3340.000000	99.896792
3339.000000	99.898058
3338.000000	99.899778
3337.000000	99.902857
3336.000000	99.905429
3335.000000	99.904090
3334.000000	99.897191
3333.000000	99.884862
3332.000000	99.867168
3331.000000	99.845777
3330.000000	99.827715
3329.000000	99.823494
3328.000000	99.838372
3327.000000	99.865921
3326.000000	99.892194
3325.000000	99.906507
3324.000000	99.907919
3323.000000	99.902307
3322.000000	99.895086
3321.000000	99.887628
3320.000000	99.879515
3319.000000	99.871879
3318.000000	99.867017
3317.000000	99.865431
3316.000000	99.865415
3315.000000	99.866222
3314.000000	99.869599
3313.000000	99.876099
3312.000000	99.881068
3311.000000	99.877546
3310.000000	99.864436
3309.000000	99.849754
3308.000000	99.843316
3307.000000	99.846497
3306.000000	99.851203
3305.000000	99.849717
3304.000000	99.843956
3303.000000	99.843102
3302.000000	99.852307
3301.000000	99.865874
3300.000000	99.873161
3299.000000	99.869974
3298.000000	99.861865
3297.000000	99.856593
3296.000000	99.856282
3295.000000	99.858466
3294.000000	99.862023
3293.000000	99.868395
3292.000000	99.877096
3291.000000	99.883291
3290.000000	99.881847
3289.000000	99.872902
3288.000000	99.862311
3287.000000	99.857051
3286.000000	99.860458
3285.000000	99.870445
3284.000000	99.880719
3283.000000	99.884450
3282.000000	99.879213
3281.000000	99.869793
3280.000000	99.865357
3279.000000	99.872295
3278.000000	99.889118
3277.000000	99.908093
3276.000000	99.921136
3275.000000	99.923906
3274.000000	99.916159
3273.000000	99.901325
3272.000000	99.886223
3271.000000	99.877617
3270.000000	99.875990
3269.000000	99.874230
3268.000000	99.865837
3267.000000	99.854127
3266.000000	99.849734
3265.000000	99.858128
3264.000000	99.872760
3263.000000	99.882277
3262.000000	99.881626
3261.000000	99.873860
3260.000000	99.864182
3259.000000	99.856200
3258.000000	99.852540
3257.000000	99.854247
3256.000000	99.858518
3255.000000	99.860514
3254.000000	99.859260
3253.000000	99.859393
3252.000000	99.865335
3251.000000	99.875465
3250.000000	99.883867
3249.000000	99.886613
3248.000000	99.884451
3247.000000	99.880305
3246.000000	99.876552
3245.000000	99.875029
3244.000000	99.877407
3243.000000	99.883625
3242.000000	99.890269
3241.000000	99.892213
3240.000000	99.886923
3239.000000	99.876828
3238.000000	99.866465
3237.000000	99.857390
3236.000000	99.847386
3235.000000	99.835488
3234.000000	99.826277
3233.000000	99.826821
3232.000000	99.838958
3231.000000	99.856115
3230.000000	99.868713
3229.000000	99.872220
3228.000000	99.869636
3227.000000	99.867026
3226.000000	99.867491
3225.000000	99.869052
3224.000000	99.867417
3223.000000	99.860589
3222.000000	99.851053
3221.000000	99.843830
3220.000000	99.842576
3219.000000	99.847642
3218.000000	99.857484
3217.000000	99.871121
3216.000000	99.888530
3215.000000	99.908288
3214.000000	99.925022
3213.000000	99.930535
3212.000000	99.919758
3211.000000	99.896913
3210.000000	99.874678
3209.000000	99.865109
3208.000000	99.870460
3207.000000	99.883028
3206.000000	99.893035
3205.000000	99.895520
3204.000000	99.890741
3203.000000	99.880903
3202.000000	99.868200
3201.000000	99.855205
3200.000000	99.845555
3199.000000	99.843048
3198.000000	99.849002
3197.000000	99.860083
3196.000000	99.870029
3195.000000	99.875072
3194.000000	99.877158
3193.000000	99.880385
3192.000000	99.885116
3191.000000	99.887997
3190.000000	99.887512
3189.000000	99.886172
3188.000000	99.885838
3187.000000	99.884112
3186.000000	99.878356
3185.000000	99.871625
3184.000000	99.870751
3183.000000	99.878013
3182.000000	99.887464
3181.000000	99.891017
3180.000000	99.887017
3179.000000	99.881556
3178.000000	99.881645
3177.000000	99.887977
3176.000000	99.894733
3175.000000	99.896118
3174.000000	99.892284
3173.000000	99.888154
3172.000000	99.886767
3171.000000	99.885370
3170.000000	99.879220
3169.000000	99.868157
3168.000000	99.857353
3167.000000	99.851495
3166.000000	99.850243
3165.000000	99.850546
3164.000000	99.851735
3163.000000	99.856149
3162.000000	99.865155
3161.000000	99.876988
3160.000000	99.889311
3159.000000	99.901503
3158.000000	99.912174
3157.000000	99.916202
3156.000000	99.908397
3155.000000	99.891145
3154.000000	99.874910
3153.000000	99.868189
3152.000000	99.868532
3151.000000	99.866507
3150.000000	99.857651
3149.000000	99.847048
3148.000000	99.841812
3147.000000	99.842671
3146.000000	99.845028
3145.000000	99.846012
3144.000000	99.847569
3143.000000	99.852750
3142.000000	99.860854
3141.000000	99.866887
3140.000000	99.865617
3139.000000	99.856616
3138.000000	99.845535
3137.000000	99.839597
3136.000000	99.841245
3135.000000	99.846701
3134.000000	99.850720
3133.000000	99.851465
3132.000000	99.850444
3131.000000	99.849664
3130.000000	99.850370
3129.000000	99.853153
3128.000000	99.857247
3127.000000	99.860319
3126.000000	99.860756
3125.000000	99.859890
3124.000000	99.860332
3123.000000	99.862391
3122.000000	99.864013
3121.000000	99.864432
3120.000000	99.865917
3119.000000	99.870744
3118.000000	99.877526
3117.000000	99.882109
3116.000000	99.882379
3115.000000	99.881325
3114.000000	99.884276
3113.000000	99.892612
3112.000000	99.900903
3111.000000	99.901635
3110.000000	99.892944
3109.000000	99.880320
3108.000000	99.870410
3107.000000	99.865168
3106.000000	99.863259
3105.000000	99.864705
3104.000000	99.870715
3103.000000	99.879693
3102.000000	99.887091
3101.000000	99.890373
3100.000000	99.891740
3099.000000	99.894636
3098.000000	99.899588
3097.000000	99.904725
3096.000000	99.908291
3095.000000	99.908716
3094.000000	99.903890
3093.000000	99.893383
3092.000000	99.881398
3091.000000	99.875037
3090.000000	99.878104
3089.000000	99.887058
3088.000000	99.893791
3087.000000	99.892626
3086.000000	99.885009
3085.000000	99.877671
3084.000000	99.875918
3083.000000	99.878556
3082.000000	99.879847
3081.000000	99.876672
3080.000000	99.872549
3079.000000	99.873370
3078.000000	99.879977
3077.000000	99.886651
3076.000000	99.887058
3075.000000	99.880369
3074.000000	99.871353
3073.000000	99.865932
3072.000000	99.867192
3071.000000	99.874303
3070.000000	99.883645
3069.000000	99.891054
3068.000000	99.894367
3067.000000	99.894696
3066.000000	99.895146
3065.000000	99.897826
3064.000000	99.901777
3063.000000	99.903928
3062.000000	99.902417
3061.000000	99.898858
3060.000000	99.896621
3059.000000	99.896384
3058.000000	99.894467
3057.000000	99.886982
3056.000000	99.875393
3055.000000	99.866152
3054.000000	99.864272
3053.000000	99.868893
3052.000000	99.875852
3051.000000	99.882805
3050.000000	99.889725
3049.000000	99.895376
3048.000000	99.896335
3047.000000	99.890838
3046.000000	99.881977
3045.000000	99.875468
3044.000000	99.874523
3043.000000	99.877849
3042.000000	99.882162
3041.000000	99.885282
3040.000000	99.886561
3039.000000	99.885684
3038.000000	99.882571
3037.000000	99.878528
3036.000000	99.876395
3035.000000	99.878570
3034.000000	99.884751
3033.000000	99.891926
3032.000000	99.896691
3031.000000	99.897440
3030.000000	99.894642
3029.000000	99.889908
3028.000000	99.885242
3027.000000	99.882214
3026.000000	99.880413
3025.000000	99.876894
3024.000000	99.868966
3023.000000	99.858614
3022.000000	99.852916
3021.000000	99.858093
3020.000000	99.872664
3019.000000	99.887494
3018.000000	99.893253
3017.000000	99.887814
3016.000000	99.876826
3015.000000	99.868319
3014.000000	99.867145
3013.000000	99.872751
3012.000000	99.880087
3011.000000	99.882635
3010.000000	99.876798
3009.000000	99.865196
3008.000000	99.855489
3007.000000	99.854524
3006.000000	99.862563
3005.000000	99.873219
3004.000000	99.879467
3003.000000	99.879788
3002.000000	99.878156
3001.000000	99.878342
3000.000000	99.879241
2999.000000	99.876618
2998.000000	99.868887
2997.000000	99.859668
2996.000000	99.854225
2995.000000	99.854497
2994.000000	99.858555
2993.000000	99.863744
2992.000000	99.868516
2991.000000	99.871686
2990.000000	99.872524
2989.000000	99.872753
2988.000000	99.876499
2987.000000	99.886134
2986.000000	99.898685
2985.000000	99.907990
2984.000000	99.910125
2983.000000	99.905343
2982.000000	99.895291
2981.000000	99.880832
2980.000000	99.863527
2979.000000	99.847441
2978.000000	99.837585
2977.000000	99.836706
2976.000000	99.844150
2975.000000	99.857098
2974.000000	99.872150
2973.000000	99.886467
2972.000000	99.898641
2971.000000	99.908350
2970.000000	99.914535
2969.000000	99.914369
2968.000000	99.905137
2967.000000	99.887526
2966.000000	99.866804
2965.000000	99.850550
2964.000000	99.844538
2963.000000	99.849359
2962.000000	99.860159
2961.000000	99.870608
2960.000000	99.878029
2959.000000	99.884144
2958.000000	99.890535
2957.000000	99.895508
2956.000000	99.897408
2955.000000	99.898995
2954.000000	99.904616
2953.000000	99.912672
2952.000000	99.914705
2951.000000	99.904200
2950.000000	99.884439
2949.000000	99.865721
2948.000000	99.856137
2947.000000	99.856629
2946.000000	99.863267
2945.000000	99.871442
2944.000000	99.877985
2943.000000	99.881922
2942.000000	99.884374
2941.000000	99.886659
2940.000000	99.887934
2939.000000	99.885527
2938.000000	99.877909
2937.000000	99.866519
2936.000000	99.854556
2935.000000	99.845005
2934.000000	99.839901
2933.000000	99.839833
2932.000000	99.842797
2931.000000	99.844442
2930.000000	99.841267
2929.000000	99.834186
2928.000000	99.828254
2927.000000	99.828224
2926.000000	99.834413
2925.000000	99.842778
2924.000000	99.848476
2923.000000	99.849067
2922.000000	99.845139
2921.000000	99.839462
2920.000000	99.835914
2919.000000	99.837638
2918.000000	99.844319
2917.000000	99.851399
2916.000000	99.853670
2915.000000	99.850509
2914.000000	99.846860
2913.000000	99.848337
2912.000000	99.855618
2911.000000	99.863855
2910.000000	99.867071
2909.000000	99.863001
2908.000000	99.854659
2907.000000	99.847849
2906.000000	99.846632
2905.000000	99.850460
2904.000000	99.855775
2903.000000	99.860142
2902.000000	99.864180
2901.000000	99.869085
2900.000000	99.874209
2899.000000	99.877998
2898.000000	99.879887
2897.000000	99.879681
2896.000000	99.875998
2895.000000	99.867941
2894.000000	99.858650
2893.000000	99.854789
2892.000000	99.860583
2891.000000	99.872769
2890.000000	99.882788
2889.000000	99.884505
2888.000000	99.879506
2887.000000	99.874762
2886.000000	99.875241
2885.000000	99.878936
2884.000000	99.879366
2883.000000	99.872727
2882.000000	99.861987
2881.000000	99.853976
2880.000000	99.853511
2879.000000	99.860543
2878.000000	99.871493
2877.000000	99.881651
2876.000000	99.887142
2875.000000	99.886979
2874.000000	99.883929
2873.000000	99.882074
2872.000000	99.882878
2871.000000	99.884406
2870.000000	99.884564
2869.000000	99.883643
2868.000000	99.882869
2867.000000	99.881784
2866.000000	99.878603
2865.000000	99.872887
2864.000000	99.866471
2863.000000	99.861410
2862.000000	99.857689
2861.000000	99.853451
2860.000000	99.847316
2859.000000	99.840253
2858.000000	99.835259
2857.000000	99.835099
2856.000000	99.840042
2855.000000	99.847403
2854.000000	99.853153
2853.000000	99.854534
2852.000000	99.852045
2851.000000	99.849400
2850.000000	99.850992
2849.000000	99.858657
2848.000000	99.870645
2847.000000	99.883519
2846.000000	99.894298
2845.000000	99.900649
2844.000000	99.900595
2843.000000	99.893842
2842.000000	99.883402
2841.000000	99.874670
2840.000000	99.872432
2839.000000	99.878799
2838.000000	99.892873
2837.000000	99.910571
2836.000000	99.925073
2835.000000	99.929970
2834.000000	99.923844
2833.000000	99.911313
2832.000000	99.898859
2831.000000	99.890101
2830.000000	99.885326
2829.000000	99.884151
2828.000000	99.886708
2827.000000	99.892088
2826.000000	99.897016
2825.000000	99.897457
2824.000000	99.892117
2823.000000	99.884303
2822.000000	99.879598
2821.000000	99.880932
2820.000000	99.885886
2819.000000	99.889332
2818.000000	99.888543
2817.000000	99.885092
2816.000000	99.882164
2815.000000	99.881297
2814.000000	99.881943
2813.000000	99.882802
2812.000000	99.882766
2811.000000	99.881586
2810.000000	99.880605
2809.000000	99.882155
2808.000000	99.887094
2807.000000	99.893162
2806.000000	99.896648
2805.000000	99.895589
2804.000000	99.890913
2803.000000	99.884935
2802.000000	99.879739
2801.000000	99.876751
2800.000000	99.876401
2799.000000	99.877470
2798.000000	99.877724
2797.000000	99.876457
2796.000000	99.876225
2795.000000	99.880459
2794.000000	99.888325
2793.000000	99.893055
2792.000000	99.887727
2791.000000	99.873341
2790.000000	99.859358
2789.000000	99.854634
2788.000000	99.858957
2787.000000	99.865199
2786.000000	99.868491
2785.000000	99.870061
2784.000000	99.871963
2783.000000	99.872124
2782.000000	99.867715
2781.000000	99.861515
2780.000000	99.860843
2779.000000	99.869199
2778.000000	99.881175
2777.000000	99.887368
2776.000000	99.883585
2775.000000	99.874081
2774.000000	99.866153
2773.000000	99.863163
2772.000000	99.863458
2771.000000	99.864726
2770.000000	99.867214
2769.000000	99.872239
2768.000000	99.879408
2767.000000	99.886925
2766.000000	99.893687
2765.000000	99.899342
2764.000000	99.902799
2763.000000	99.902674
2762.000000	99.899249
2761.000000	99.894178
2760.000000	99.888369
2759.000000	99.882412
2758.000000	99.879226
2757.000000	99.883018
2756.000000	99.893700
2755.000000	99.904682
2754.000000	99.908622
2753.000000	99.904031
2752.000000	99.894507
2751.000000	99.883726
2750.000000	99.874350
2749.000000	99.870076
2748.000000	99.873831
2747.000000	99.882836
2746.000000	99.889001
2745.000000	99.886308
2744.000000	99.876245
2743.000000	99.864924
2742.000000	99.857151
2741.000000	99.854725
2740.000000	99.857932
2739.000000	99.865467
2738.000000	99.873480
2737.000000	99.877722
2736.000000	99.877617
2735.000000	99.876761
2734.000000	99.878712
2733.000000	99.883306
2732.000000	99.887612
2731.000000	99.889456
2730.000000	99.888942
2729.000000	99.887104
2728.000000	99.884383
2727.000000	99.880931
2726.000000	99.877759
2725.000000	99.876680
2724.000000	99.878783
2723.000000	99.883212
2722.000000	99.887832
2721.000000	99.890991
2720.000000	99.892144
2719.000000	99.890659
2718.000000	99.885197
2717.000000	99.875853
2716.000000	99.866823
2715.000000	99.864458
2714.000000	99.870490
2713.000000	99.878321
2712.000000	99.879195
2711.000000	99.872692
2710.000000	99.868165
2709.000000	99.873770
2708.000000	99.886685
2707.000000	99.897199
2706.000000	99.900745
2705.000000	99.901561
2704.000000	99.904385
2703.000000	99.907273
2702.000000	99.904979
2701.000000	99.896421
2700.000000	99.885900
2699.000000	99.878546
2698.000000	99.876952
2697.000000	99.880848
2696.000000	99.887282
2695.000000	99.891580
2694.000000	99.890441
2693.000000	99.884351
2692.000000	99.876072
2691.000000	99.867811
2690.000000	99.861299
2689.000000	99.859057
2688.000000	99.862793
2687.000000	99.870767
2686.000000	99.879041
2685.000000	99.885370
2684.000000	99.889962
2683.000000	99.892790
2682.000000	99.892709
2681.000000	99.889779
2680.000000	99.886339
2679.000000	99.884767
2678.000000	99.885336
2677.000000	99.886488
2676.000000	99.885863
2675.000000	99.881222
2674.000000	99.872478
2673.000000	99.863465
2672.000000	99.859958
2671.000000	99.864859
2670.000000	99.875972
2669.000000	99.888258
2668.000000	99.896983
2667.000000	99.899338
2666.000000	99.895881
2665.000000	99.891208
2664.000000	99.890770
2663.000000	99.895525
2662.000000	99.901131
2661.000000	99.903200
2660.000000	99.901359
2659.000000	99.897014
2658.000000	99.889619
2657.000000	99.877929
2656.000000	99.864050
2655.000000	99.853678
2654.000000	99.851557
2653.000000	99.857146
2652.000000	99.864540
2651.000000	99.866702
2650.000000	99.861175
2649.000000	99.852390
2648.000000	99.847563
2647.000000	99.850152
2646.000000	99.858323
2645.000000	99.868953
2644.000000	99.879938
2643.000000	99.888213
2642.000000	99.889741
2641.000000	99.884214
2640.000000	99.876893
2639.000000	99.872733
2638.000000	99.870763
2637.000000	99.867047
2636.000000	99.860752
2635.000000	99.853900
2634.000000	99.847586
2633.000000	99.842764
2632.000000	99.842852
2631.000000	99.850192
2630.000000	99.860525
2629.000000	99.866362
2628.000000	99.866327
2627.000000	99.865906
2626.000000	99.867819
2625.000000	99.867397
2624.000000	99.860446
2623.000000	99.850987
2622.000000	99.846882
2621.000000	99.850595
2620.000000	99.858414
2619.000000	99.866828
2618.000000	99.875202
2617.000000	99.882412
2616.000000	99.884981
2615.000000	99.880434
2614.000000	99.870993
2613.000000	99.862606
2612.000000	99.860391
2611.000000	99.865197
2610.000000	99.874470
2609.000000	99.885897
2608.000000	99.898932
2607.000000	99.912216
2606.000000	99.921613
2605.000000	99.923466
2604.000000	99.918628
2603.000000	99.910015
2602.000000	99.897171
2601.000000	99.878132
2600.000000	99.857182
2599.000000	99.844795
2598.000000	99.846353
2597.000000	99.855307
2596.000000	99.861965
2595.000000	99.865786
2594.000000	99.873551
2593.000000	99.887021
2592.000000	99.898381
2591.000000	99.898716
2590.000000	99.886826
2589.000000	99.868904
2588.000000	99.853393
2587.000000	99.847281
2586.000000	99.853273
2585.000000	99.866935
2584.000000	99.877682
2583.000000	99.875610
2582.000000	99.859314
2581.000000	99.838336
2580.000000	99.827996
2579.000000	99.838695
2578.000000	99.866156
2577.000000	99.892173
2576.000000	99.899062
2575.000000	99.885699
2574.000000	99.867894
2573.000000	99.862206
2572.000000	99.871119
2571.000000	99.884319
2570.000000	99.891233
2569.000000	99.890172
2568.000000	99.887440
2567.000000	99.890288
2566.000000	99.899877
2565.000000	99.909135
2564.000000	99.908575
2563.000000	99.896461
2562.000000	99.882349
2561.000000	99.877862
2560.000000	99.884075
2559.000000	99.890885
2558.000000	99.889419
2557.000000	99.881787
2556.000000	99.876254
2555.000000	99.875258
2554.000000	99.872421
2553.000000	99.861994
2552.000000	99.848046
2551.000000	99.841814
2550.000000	99.850649
2549.000000	99.870873
2548.000000	99.890829
2547.000000	99.899777
2546.000000	99.894860
2545.000000	99.881921
2544.000000	99.870230
2543.000000	99.864813
2542.000000	99.863083
2541.000000	99.859914
2540.000000	99.855999
2539.000000	99.858788
2538.000000	99.873564
2537.000000	99.895482
2536.000000	99.913135
2535.000000	99.919460
2534.000000	99.916644
2533.000000	99.910585
2532.000000	99.903888
2531.000000	99.896016
2530.000000	99.887896
2529.000000	99.882979
2528.000000	99.883193
2527.000000	99.885861
2526.000000	99.886185
2525.000000	99.882514
2524.000000	99.878052
2523.000000	99.877035
2522.000000	99.880141
2521.000000	99.884567
2520.000000	99.887818
2519.000000	99.889822
2518.000000	99.891619
2517.000000	99.894216
2516.000000	99.899215
2515.000000	99.907737
2514.000000	99.916832
2513.000000	99.919425
2512.000000	99.911075
2511.000000	99.895752
2510.000000	99.882006
2509.000000	99.874341
2508.000000	99.871483
2507.000000	99.871540
2506.000000	99.873503
2505.000000	99.873288
2504.000000	99.865050
2503.000000	99.850646
2502.000000	99.843160
2501.000000	99.854718
2500.000000	99.881646
2499.000000	99.906679
2498.000000	99.916503
2497.000000	99.913700
2496.000000	99.911157
2495.000000	99.918253
2494.000000	99.933476
2493.000000	99.947217
2492.000000	99.949684
2491.000000	99.938249
2490.000000	99.919414
2489.000000	99.903008
2488.000000	99.893616
2487.000000	99.888581
2486.000000	99.884227
2485.000000	99.881145
2484.000000	99.881787
2483.000000	99.885794
2482.000000	99.891191
2481.000000	99.898912
2480.000000	99.911923
2479.000000	99.928846
2478.000000	99.941698
2477.000000	99.942545
2476.000000	99.931388
2475.000000	99.915677
2474.000000	99.902818
2473.000000	99.894945
2472.000000	99.890399
2471.000000	99.887512
2470.000000	99.885613
2469.000000	99.884151
2468.000000	99.883017
2467.000000	99.883284
2466.000000	99.885398
2465.000000	99.886303
2464.000000	99.880695
2463.000000	99.867021
2462.000000	99.851271
2461.000000	99.842557
2460.000000	99.844155
2459.000000	99.849645
2458.000000	99.848599
2457.000000	99.836754
2456.000000	99.821773
2455.000000	99.819079
2454.000000	99.839298
2453.000000	99.876841
2452.000000	99.911558
2451.000000	99.925110
2450.000000	99.916686
2449.000000	99.900589
2448.000000	99.888622
2447.000000	99.878793
2446.000000	99.862744
2445.000000	99.839323
2444.000000	99.816363
2443.000000	99.802278
2442.000000	99.801923
2441.000000	99.818995
2440.000000	99.854132
2439.000000	99.897544
2438.000000	99.930237
2437.000000	99.939329
2436.000000	99.930436
2435.000000	99.919815
2434.000000	99.915435
2433.000000	99.911085
2432.000000	99.898979
2431.000000	99.881908
2430.000000	99.869620
2429.000000	99.867061
2428.000000	99.870685
2427.000000	99.874918
2426.000000	99.878054
2425.000000	99.881183
2424.000000	99.884369
2423.000000	99.885567
2422.000000	99.882209
2421.000000	99.873057
2420.000000	99.859665
2419.000000	99.846905
2418.000000	99.840812
2417.000000	99.843937
2416.000000	99.852438
2415.000000	99.859129
2414.000000	99.860500
2413.000000	99.860350
2412.000000	99.865455
2411.000000	99.877521
2410.000000	99.890467
2409.000000	99.896547
2408.000000	99.894859
2407.000000	99.892962
2406.000000	99.899971
2405.000000	99.918100
2404.000000	99.940027
2403.000000	99.953557
2402.000000	99.950124
2401.000000	99.931715
2400.000000	99.910564
2399.000000	99.899950
2398.000000	99.903127
2397.000000	99.911551
2396.000000	99.914667
2395.000000	99.910569
2394.000000	99.906291
2393.000000	99.909155
2392.000000	99.919650
2391.000000	99.931761
2390.000000	99.937991
2389.000000	99.934368
2388.000000	99.922985
2387.000000	99.910507
2386.000000	99.902976
2385.000000	99.901661
2384.000000	99.904603
2383.000000	99.911323
2382.000000	99.923382
2381.000000	99.939739
2380.000000	99.954571
2379.000000	99.962096
2378.000000	99.961743
2377.000000	99.956515
2376.000000	99.948692
2375.000000	99.941005
2374.000000	99.939243
2373.000000	99.946866
2372.000000	99.956850
2371.000000	99.956424
2370.000000	99.943420
2369.000000	99.931850
2368.000000	99.935441
2367.000000	99.949576
2366.000000	99.955981
2365.000000	99.943620
2364.000000	99.919336
2363.000000	99.899872
2362.000000	99.900984
2361.000000	99.929323
2360.000000	99.974945
2359.000000	100.013613
2358.000000	100.022812
2357.000000	100.002809
2356.000000	99.975879
2355.000000	99.962448
2354.000000	99.963315
2353.000000	99.964940
2352.000000	99.960702
2351.000000	99.955874
2350.000000	99.955690
2349.000000	99.958310
2348.000000	99.956807
2347.000000	99.949308
2346.000000	99.940719
2345.000000	99.937167
2344.000000	99.936985
2343.000000	99.936894
2342.000000	99.948319
2341.000000	99.984223
2340.000000	100.036899
2339.000000	100.078127
2338.000000	100.085572
2337.000000	100.058967
2336.000000	100.012989
2335.000000	99.962966
2334.000000	99.922358
2333.000000	99.899319
2332.000000	99.890754
2331.000000	99.882780
2330.000000	99.868107
2329.000000	99.856547
2328.000000	99.857376
2327.000000	99.867124
2326.000000	99.875325
2325.000000	99.880279
2324.000000	99.887529
2323.000000	99.897127
2322.000000	99.903996
2321.000000	99.905620
2320.000000	99.904656
2319.000000	99.899028
2318.000000	99.884847
2317.000000	99.866095
2316.000000	99.854828
2315.000000	99.857849
2314.000000	99.869424
2313.000000	99.879344
2312.000000	99.883603
2311.000000	99.884616
2310.000000	99.884400
2309.000000	99.882790
2308.000000	99.878676
2307.000000	99.870027
2306.000000	99.854341
2305.000000	99.832297
2304.000000	99.810485
2303.000000	99.798667
2302.000000	99.804504
2301.000000	99.827945
2300.000000	99.858071
2299.000000	99.877840
2298.000000	99.877965
2297.000000	99.867408
2296.000000	99.864169
2295.000000	99.875089
2294.000000	99.889934
2293.000000	99.897961
2292.000000	99.901339
2291.000000	99.906982
2290.000000	99.912124
2289.000000	99.907702
2288.000000	99.892693
2287.000000	99.875853
2286.000000	99.864070
2285.000000	99.856947
2284.000000	99.852742
2283.000000	99.851354
2282.000000	99.850416
2281.000000	99.845923
2280.000000	99.839205
2279.000000	99.836191
2278.000000	99.837661
2277.000000	99.837567
2276.000000	99.834240
2275.000000	99.834952
2274.000000	99.844086
2273.000000	99.854396
2272.000000	99.856985
2271.000000	99.854139
2270.000000	99.854177
2269.000000	99.858129
2268.000000	99.860369
2267.000000	99.859754
2266.000000	99.860649
2265.000000	99.863071
2264.000000	99.860829
2263.000000	99.851819
2262.000000	99.842456
2261.000000	99.838036
2260.000000	99.834503
2259.000000	99.825441
2258.000000	99.814622
2257.000000	99.815198
2256.000000	99.834768
2255.000000	99.864320
2254.000000	99.885460
2253.000000	99.888728
2252.000000	99.882137
2251.000000	99.879790
2250.000000	99.884676
2249.000000	99.887202
2248.000000	99.880640
2247.000000	99.872186
2246.000000	99.874686
2245.000000	99.890514
2244.000000	99.908125
2243.000000	99.913889
2242.000000	99.903571
2241.000000	99.882413
2240.000000	99.857445
2239.000000	99.831576
2238.000000	99.805128
2237.000000	99.782131
2236.000000	99.771923
2235.000000	99.780338
2234.000000	99.799670
2233.000000	99.812932
2232.000000	99.810388
2231.000000	99.796537
2230.000000	99.778293
2229.000000	99.754897
2228.000000	99.727148
2227.000000	99.708768
2226.000000	99.715006
2225.000000	99.740632
2224.000000	99.761952
2223.000000	99.764387
2222.000000	99.757979
2221.000000	99.761312
2220.000000	99.780336
2219.000000	99.810034
2218.000000	99.846841
2217.000000	99.886709
2216.000000	99.914868
2215.000000	99.911560
2214.000000	99.873267
2213.000000	99.822306
2212.000000	99.789963
2211.000000	99.791593
2210.000000	99.820110
2209.000000	99.859267
2208.000000	99.896624
2207.000000	99.922279
2206.000000	99.922345
2205.000000	99.886144
2204.000000	99.824957
2203.000000	99.774752
2202.000000	99.768087
2201.000000	99.801314
2200.000000	99.837435
2199.000000	99.845013
2198.000000	99.827093
2197.000000	99.807936
2196.000000	99.800250
2195.000000	99.795540
2194.000000	99.783690
2193.000000	99.770887
2192.000000	99.774097
2191.000000	99.801775
2190.000000	99.842242
2189.000000	99.870428
2188.000000	99.868859
2187.000000	99.844973
2186.000000	99.825418
2185.000000	99.830096
2184.000000	99.854058
2183.000000	99.878534
2182.000000	99.894368
2181.000000	99.906137
2180.000000	99.917214
2179.000000	99.923696
2178.000000	99.924998
2177.000000	99.928306
2176.000000	99.936096
2175.000000	99.938966
2174.000000	99.931119
2173.000000	99.926945
2172.000000	99.949447
2171.000000	100.001904
2170.000000	100.059984
2169.000000	100.094014
2168.000000	100.092697
2167.000000	100.062035
2166.000000	100.010525
2165.000000	99.946925
2164.000000	99.889270
2163.000000	99.862232
2162.000000	99.878331
2161.000000	99.925183
2160.000000	99.977002
2159.000000	100.017975
2158.000000	100.046978
2157.000000	100.061346
2156.000000	100.050401
2155.000000	100.009913
2154.000000	99.955044
2153.000000	99.912450
2152.000000	99.898026
2151.000000	99.903581
2150.000000	99.905418
2149.000000	99.885661
2148.000000	99.847604
2147.000000	99.812432
2146.000000	99.801243
2145.000000	99.818154
2144.000000	99.848267
2143.000000	99.870886
2142.000000	99.875213
2141.000000	99.866623
2140.000000	99.860542
2139.000000	99.868520
2138.000000	99.887363
2137.000000	99.902500
2136.000000	99.904571
2135.000000	99.900824
2134.000000	99.905726
2133.000000	99.922648
2132.000000	99.942004
2131.000000	99.956616
2130.000000	99.969221
2129.000000	99.981721
2128.000000	99.986632
2127.000000	99.977592
2126.000000	99.962694
2125.000000	99.956427
2124.000000	99.959524
2123.000000	99.958083
2122.000000	99.944905
2121.000000	99.930203
2120.000000	99.924306
2119.000000	99.919544
2118.000000	99.901183
2117.000000	99.872493
2116.000000	99.856138
2115.000000	99.868559
2114.000000	99.902645
2113.000000	99.939738
2112.000000	99.970402
2111.000000	99.995465
2110.000000	100.011730
2109.000000	100.008757
2108.000000	99.983160
2107.000000	99.948538
2106.000000	99.924625
2105.000000	99.917467
2104.000000	99.914369
2103.000000	99.900146
2102.000000	99.876297
2101.000000	99.860787
2100.000000	99.867894
2099.000000	99.891110
2098.000000	99.909595
2097.000000	99.911094
2096.000000	99.903613
2095.000000	99.901490
2094.000000	99.905103
2093.000000	99.901842
2092.000000	99.886295
2091.000000	99.871126
2090.000000	99.873521
2089.000000	99.894994
2088.000000	99.920609
2087.000000	99.937273
2086.000000	99.945668
2085.000000	99.951867
2084.000000	99.953733
2083.000000	99.942274
2082.000000	99.914821
2081.000000	99.880291
2080.000000	99.849933
2079.000000	99.828151
2078.000000	99.815236
2077.000000	99.813100
2076.000000	99.821544
2075.000000	99.831696
2074.000000	99.831346
2073.000000	99.818991
2072.000000	99.806518
2071.000000	99.804143
2070.000000	99.808228
2069.000000	99.810266
2068.000000	99.814469
2067.000000	99.836419
2066.000000	99.880021
2065.000000	99.922166
2064.000000	99.930169
2063.000000	99.896017
2062.000000	99.847784
2061.000000	99.825952
2060.000000	99.849774
2059.000000	99.904986
2058.000000	99.959057
2057.000000	99.985025
2056.000000	99.974827
2055.000000	99.937574
2054.000000	99.889782
2053.000000	99.846778
2052.000000	99.819538
2051.000000	99.814799
2050.000000	99.832528
2049.000000	99.861108
2048.000000	99.882233
2047.000000	99.888147
2046.000000	99.889803
2045.000000	99.900443
2044.000000	99.914886
2043.000000	99.916167
2042.000000	99.903608
2041.000000	99.900381
2040.000000	99.923340
2039.000000	99.955811
2038.000000	99.964208
2037.000000	99.936737
2036.000000	99.892199
2035.000000	99.852137
2034.000000	99.822188
2033.000000	99.806265
2032.000000	99.819367
2031.000000	99.870861
2030.000000	99.943097
2029.000000	99.999704
2028.000000	100.016230
2027.000000	99.997383
2026.000000	99.966298
2025.000000	99.943375
2024.000000	99.932211
2023.000000	99.920002
2022.000000	99.892351
2021.000000	99.849070
2020.000000	99.803832
2019.000000	99.771280
2018.000000	99.762645
2017.000000	99.789242
2016.000000	99.851621
2015.000000	99.921069
2014.000000	99.950221
2013.000000	99.917520
2012.000000	99.853688
2011.000000	99.809932
2010.000000	99.807952
2009.000000	99.834158
2008.000000	99.869939
2007.000000	99.904692
2006.000000	99.923419
2005.000000	99.910489
2004.000000	99.872359
2003.000000	99.834591
2002.000000	99.811492
2001.000000	99.796531
2000.000000	99.786156
1999.000000	99.791653
1998.000000	99.815035
1997.000000	99.832960
1996.000000	99.824894
1995.000000	99.804638
1994.000000	99.803854
1993.000000	99.831014
1992.000000	99.865469
1991.000000	99.890996
1990.000000	99.912606
1989.000000	99.935965
1988.000000	99.952726
1987.000000	99.954029
1986.000000	99.943073
1985.000000	99.926930
1984.000000	99.908604
1983.000000	99.894689
1982.000000	99.898576
1981.000000	99.924033
1980.000000	99.951455
1979.000000	99.951736
1978.000000	99.915544
1977.000000	99.865425
1976.000000	99.837830
1975.000000	99.853694
1974.000000	99.900831
1973.000000	99.939556
1972.000000	99.934196
1971.000000	99.887122
1970.000000	99.837589
1969.000000	99.824379
1968.000000	99.851979
1967.000000	99.893716
1966.000000	99.922622
1965.000000	99.933390
1964.000000	99.937386
1963.000000	99.943206
1962.000000	99.943449
1961.000000	99.921766
1960.000000	99.876640
1959.000000	99.833263
1958.000000	99.821639
1957.000000	99.844229
1956.000000	99.875917
1955.000000	99.896406
1954.000000	99.909267
1953.000000	99.924540
1952.000000	99.937240
1951.000000	99.936086
1950.000000	99.925497
1949.000000	99.922812
1948.000000	99.934143
1947.000000	99.945802
1946.000000	99.942712
1945.000000	99.926521
1944.000000	99.912106
1943.000000	99.912516
1942.000000	99.930376
1941.000000	99.959622
1940.000000	99.991165
1939.000000	100.015963
1938.000000	100.025960
1937.000000	100.017252
1936.000000	99.994292
1935.000000	99.968980
1934.000000	99.953088
1933.000000	99.950595
1932.000000	99.957308
1931.000000	99.966588
1930.000000	99.972204
1929.000000	99.966570
1928.000000	99.944768
1927.000000	99.913477
1926.000000	99.889375
1925.000000	99.883536
1924.000000	99.890510
1923.000000	99.898236
1922.000000	99.904089
1921.000000	99.911788
1920.000000	99.916988
1919.000000	99.908347
1918.000000	99.885986
1917.000000	99.868963
1916.000000	99.875050
1915.000000	99.902026
1914.000000	99.932893
1913.000000	99.950090
1912.000000	99.944327
1911.000000	99.917235
1910.000000	99.881930
1909.000000	99.858961
1908.000000	99.863032
1907.000000	99.889421
1906.000000	99.914562
1905.000000	99.913371
1904.000000	99.882148
1903.000000	99.846177
1902.000000	99.838660
1901.000000	99.867763
1900.000000	99.908841
1899.000000	99.932756
1898.000000	99.934196
1897.000000	99.926622
1896.000000	99.918059
1895.000000	99.905067
1894.000000	99.888703
1893.000000	99.879906
1892.000000	99.884203
1891.000000	99.892846
1890.000000	99.895261
1889.000000	99.894212
1888.000000	99.900921
1887.000000	99.919922
1886.000000	99.946005
1885.000000	99.969808
1884.000000	99.981272
1883.000000	99.973212
1882.000000	99.947293
1881.000000	99.915612
1880.000000	99.892806
1879.000000	99.886249
1878.000000	99.894024
1877.000000	99.908162
1876.000000	99.917923
1875.000000	99.915785
1874.000000	99.904732
1873.000000	99.895215
1872.000000	99.891407
1871.000000	99.886120
1870.000000	99.874420
1869.000000	99.867184
1868.000000	99.877861
1867.000000	99.899766
1866.000000	99.913706
1865.000000	99.912183
1864.000000	99.904294
1863.000000	99.900798
1862.000000	99.902415
1861.000000	99.904416
1860.000000	99.906284
1859.000000	99.912256
1858.000000	99.924814
1857.000000	99.940676
1856.000000	99.952775
1855.000000	99.955505
1854.000000	99.949134
1853.000000	99.938768
1852.000000	99.928216
1851.000000	99.916236
1850.000000	99.901079
1849.000000	99.887478
1848.000000	99.883307
1847.000000	99.889545
1846.000000	99.898435
1845.000000	99.901567
1844.000000	99.896831
1843.000000	99.886499
1842.000000	99.872663
1841.000000	99.858394
1840.000000	99.849061
1839.000000	99.848174
1838.000000	99.854563
1837.000000	99.865622
1836.000000	99.879966
1835.000000	99.894803
1834.000000	99.905155
1833.000000	99.909265
1832.000000	99.911202
1831.000000	99.913693
1830.000000	99.911687
1829.000000	99.900715
1828.000000	99.886995
1827.000000	99.881095
1826.000000	99.886733
1825.000000	99.899736
1824.000000	99.914272
1823.000000	99.926380
1822.000000	99.932095
1821.000000	99.928141
1820.000000	99.917179
1819.000000	99.907404
1818.000000	99.904463
1817.000000	99.906465
1816.000000	99.908179
1815.000000	99.908296
1814.000000	99.909645
1813.000000	99.914166
1812.000000	99.919887
1811.000000	99.922454
1810.000000	99.920164
1809.000000	99.915715
1808.000000	99.912619
1807.000000	99.911994
1806.000000	99.912487
1805.000000	99.911696
1804.000000	99.907369
1803.000000	99.898692
1802.000000	99.886744
1801.000000	99.873971
1800.000000	99.862588
1799.000000	99.853851
1798.000000	99.850452
1797.000000	99.856595
1796.000000	99.873801
1795.000000	99.897919
1794.000000	99.920172
1793.000000	99.932042
1792.000000	99.931954
1791.000000	99.925495
1790.000000	99.917609
1789.000000	99.908453
1788.000000	99.896983
1787.000000	99.884456
1786.000000	99.874191
1785.000000	99.868762
1784.000000	99.867814
1783.000000	99.870030
1782.000000	99.874909
1781.000000	99.881968
1780.000000	99.889561
1779.000000	99.894448
1778.000000	99.894238
1777.000000	99.889475
1776.000000	99.884092
1775.000000	99.882938
1774.000000	99.886824
1773.000000	99.890892
1772.000000	99.890408
1771.000000	99.886483
1770.000000	99.882965
1769.000000	99.881999
1768.000000	99.883779
1767.000000	99.887851
1766.000000	99.893611
1765.000000	99.899704
1764.000000	99.903384
1763.000000	99.901645
1762.000000	99.895199
1761.000000	99.889849
1760.000000	99.889140
1759.000000	99.888695
1758.000000	99.880983
1757.000000	99.863508
1756.000000	99.843468
1755.000000	99.830396
1754.000000	99.827905
1753.000000	99.835828
1752.000000	99.852563
1751.000000	99.871124
1750.000000	99.880634
1749.000000	99.877520
1748.000000	99.868946
1747.000000	99.863503
1746.000000	99.862615
1745.000000	99.863513
1744.000000	99.865305
1743.000000	99.867556
1742.000000	99.867537
1741.000000	99.863640
1740.000000	99.859713
1739.000000	99.861364
1738.000000	99.867798
1737.000000	99.872776
1736.000000	99.870728
1735.000000	99.858810
1734.000000	99.841775
1733.000000	99.831857
1732.000000	99.835060
1731.000000	99.846199
1730.000000	99.855066
1729.000000	99.853769
1728.000000	99.845494
1727.000000	99.840881
1726.000000	99.844857
1725.000000	99.851671
1724.000000	99.852918
1723.000000	99.847051
1722.000000	99.839776
1721.000000	99.836089
1720.000000	99.836028
1719.000000	99.835836
1718.000000	99.832668
1717.000000	99.830522
1716.000000	99.835667
1715.000000	99.848153
1714.000000	99.861988
1713.000000	99.870070
1712.000000	99.870684
1711.000000	99.868872
1710.000000	99.869193
1709.000000	99.869388
1708.000000	99.864935
1707.000000	99.857851
1706.000000	99.856791
1705.000000	99.865859
1704.000000	99.876613
1703.000000	99.879340
1702.000000	99.871484
1701.000000	99.857450
1700.000000	99.847443
1699.000000	99.845346
1698.000000	99.846174
1697.000000	99.846140
1696.000000	99.846154
1695.000000	99.851971
1694.000000	99.866351
1693.000000	99.882224
1692.000000	99.889251
1691.000000	99.882357
1690.000000	99.867699
1689.000000	99.856712
1688.000000	99.853666
1687.000000	99.854632
1686.000000	99.855440
1685.000000	99.855756
1684.000000	99.856932
1683.000000	99.860490
1682.000000	99.866530
1681.000000	99.874380
1680.000000	99.882918
1679.000000	99.888356
1678.000000	99.887496
1677.000000	99.880760
1676.000000	99.872950
1675.000000	99.869426
1674.000000	99.869225
1673.000000	99.867070
1672.000000	99.861737
1671.000000	99.856980
1670.000000	99.857630
1669.000000	99.863046
1668.000000	99.867684
1667.000000	99.868345
1666.000000	99.865632
1665.000000	99.861707
1664.000000	99.858555
1663.000000	99.857987
1662.000000	99.860868
1661.000000	99.865391
1660.000000	99.870270
1659.000000	99.876055
1658.000000	99.882799
1657.000000	99.888143
1656.000000	99.890422
1655.000000	99.889472
1654.000000	99.884890
1653.000000	99.878125
1652.000000	99.874244
1651.000000	99.873533
1650.000000	99.872370
1649.000000	99.869837
1648.000000	99.865396
1647.000000	99.860926
1646.000000	99.857772
1645.000000	99.856159
1644.000000	99.855721
1643.000000	99.857760
1642.000000	99.862266
1641.000000	99.864888
1640.000000	99.860179
1639.000000	99.848174
1638.000000	99.835042
1637.000000	99.825948
1636.000000	99.819398
1635.000000	99.813842
1634.000000	99.814216
1633.000000	99.824785
1632.000000	99.841926
1631.000000	99.857582
1630.000000	99.866921
1629.000000	99.872425
1628.000000	99.878916
1627.000000	99.885722
1626.000000	99.887998
1625.000000	99.884300
1624.000000	99.878350
1623.000000	99.873654
1622.000000	99.869376
1621.000000	99.863501
1620.000000	99.858226
1619.000000	99.857736
1618.000000	99.862750
1617.000000	99.868148
1616.000000	99.869246
1615.000000	99.867698
1614.000000	99.865285
1613.000000	99.860779
1612.000000	99.854344
1611.000000	99.850394
1610.000000	99.853312
1609.000000	99.861420
1608.000000	99.869194
1607.000000	99.873988
1606.000000	99.876788
1605.000000	99.878139
1604.000000	99.877337
1603.000000	99.874234
1602.000000	99.870270
1601.000000	99.867348
1600.000000	99.865955
1599.000000	99.864831
1598.000000	99.862696
1597.000000	99.860549
1596.000000	99.860702
1595.000000	99.862937
1594.000000	99.863910
1593.000000	99.862208
1592.000000	99.861792
1591.000000	99.867048
1590.000000	99.875415
1589.000000	99.878790
1588.000000	99.873114
1587.000000	99.862804
1586.000000	99.855076
1585.000000	99.852784
1584.000000	99.854710
1583.000000	99.858812
1582.000000	99.861546
1581.000000	99.858808
1580.000000	99.851204
1579.000000	99.845480
1578.000000	99.848299
1577.000000	99.859339
1576.000000	99.871123
1575.000000	99.878822
1574.000000	99.883300
1573.000000	99.885510
1572.000000	99.886126
1571.000000	99.886519
1570.000000	99.887570
1569.000000	99.886873
1568.000000	99.882556
1567.000000	99.877133
1566.000000	99.873655
1565.000000	99.871403
1564.000000	99.868739
1563.000000	99.867984
1562.000000	99.875753
1561.000000	99.896702
1560.000000	99.924371
1559.000000	99.934561
1558.000000	99.919358
1557.000000	99.899233
1556.000000	99.884783
1555.000000	99.875001
1554.000000	99.865762
1553.000000	99.855805
1552.000000	99.845420
1551.000000	99.834430
1550.000000	99.824391
1549.000000	99.820324
1548.000000	99.825637
1547.000000	99.838590
1546.000000	99.853331
1545.000000	99.863678
1544.000000	99.867588
1543.000000	99.867408
1542.000000	99.866253
1541.000000	99.865476
1540.000000	99.863484
1539.000000	99.861533
1538.000000	99.864002
1537.000000	99.872353
1536.000000	99.884968
1535.000000	99.896259
1534.000000	99.898009
1533.000000	99.890151
1532.000000	99.883935
1531.000000	99.885616
1530.000000	99.891211
1529.000000	99.895072
1528.000000	99.896335
1527.000000	99.897714
1526.000000	99.898217
1525.000000	99.893595
1524.000000	99.884601
1523.000000	99.877839
1522.000000	99.877656
1521.000000	99.879999
1520.000000	99.879413
1519.000000	99.877901
1518.000000	99.880166
1517.000000	99.886277
1516.000000	99.891185
1515.000000	99.890615
1514.000000	99.884506
1513.000000	99.875285
1512.000000	99.866577
1511.000000	99.862018
1510.000000	99.863264
1509.000000	99.868886
1508.000000	99.875127
1507.000000	99.876964
1506.000000	99.875239
1505.000000	99.874780
1504.000000	99.875114
1503.000000	99.873691
1502.000000	99.869454
1501.000000	99.864679
1500.000000	99.864621
1499.000000	99.873092
1498.000000	99.886460
1497.000000	99.895432
1496.000000	99.894482
1495.000000	99.887496
1494.000000	99.880485
1493.000000	99.873610
1492.000000	99.864509
1491.000000	99.855802
1490.000000	99.855228
1489.000000	99.864012
1488.000000	99.871438
1487.000000	99.868508
1486.000000	99.859139
1485.000000	99.851808
1484.000000	99.850054
1483.000000	99.853280
1482.000000	99.860424
1481.000000	99.869761
1480.000000	99.875893
1479.000000	99.872279
1478.000000	99.857081
1477.000000	99.836357
1476.000000	99.820135
1475.000000	99.815208
1474.000000	99.822766
1473.000000	99.838678
1472.000000	99.853713
1471.000000	99.859625
1470.000000	99.857182
1469.000000	99.853571
1468.000000	99.854291
1467.000000	99.858776
1466.000000	99.862139
1465.000000	99.861090
1464.000000	99.858148
1463.000000	99.856189
1462.000000	99.853489
1461.000000	99.847528
1460.000000	99.839723
1459.000000	99.835265
1458.000000	99.836927
1457.000000	99.840730
1456.000000	99.842955
1455.000000	99.846172
1454.000000	99.853059
1453.000000	99.861925
1452.000000	99.867472
1451.000000	99.866160
1450.000000	99.860670
1449.000000	99.858376
1448.000000	99.863010
1447.000000	99.868904
1446.000000	99.866267
1445.000000	99.851999
1444.000000	99.833847
1443.000000	99.822932
1442.000000	99.823249
1441.000000	99.828903
1440.000000	99.832661
1439.000000	99.833305
1438.000000	99.833820
1437.000000	99.836226
1436.000000	99.839937
1435.000000	99.844287
1434.000000	99.849478
1433.000000	99.854564
1432.000000	99.856227
1431.000000	99.852464
1430.000000	99.845806
1429.000000	99.841010
1428.000000	99.840024
1427.000000	99.842167
1426.000000	99.846348
1425.000000	99.849773
1424.000000	99.848713
1423.000000	99.842594
1422.000000	99.836728
1421.000000	99.838733
1420.000000	99.851723
1419.000000	99.868472
1418.000000	99.877776
1417.000000	99.878558
1416.000000	99.877165
1415.000000	99.877059
1414.000000	99.876892
1413.000000	99.874211
1412.000000	99.868817
1411.000000	99.863102
1410.000000	99.859971
1409.000000	99.860434
1408.000000	99.861733
1407.000000	99.859795
1406.000000	99.854809
1405.000000	99.852004
1404.000000	99.855001
1403.000000	99.859442
1402.000000	99.857974
1401.000000	99.848672
1400.000000	99.836311
1399.000000	99.828370
1398.000000	99.829316
1397.000000	99.838661
1396.000000	99.852051
1395.000000	99.862625
1394.000000	99.865871
1393.000000	99.865086
1392.000000	99.867185
1391.000000	99.873236
1390.000000	99.877349
1389.000000	99.873685
1388.000000	99.863016
1387.000000	99.852197
1386.000000	99.846912
1385.000000	99.846949
1384.000000	99.849220
1383.000000	99.851482
1382.000000	99.853481
1381.000000	99.856421
1380.000000	99.860218
1379.000000	99.861752
1378.000000	99.857425
1377.000000	99.848001
1376.000000	99.839057
1375.000000	99.835638
1374.000000	99.836428
1373.000000	99.835569
1372.000000	99.830845
1371.000000	99.826472
1370.000000	99.827527
1369.000000	99.833815
1368.000000	99.840368
1367.000000	99.842920
1366.000000	99.841961
1365.000000	99.841304
1364.000000	99.843665
1363.000000	99.847747
1362.000000	99.849784
1361.000000	99.848212
1360.000000	99.845534
1359.000000	99.845431
1358.000000	99.849168
1357.000000	99.854527
1356.000000	99.857579
1355.000000	99.855694
1354.000000	99.849572
1353.000000	99.842581
1352.000000	99.837478
1351.000000	99.834729
1350.000000	99.834068
1349.000000	99.835636
1348.000000	99.839205
1347.000000	99.842922
1346.000000	99.844975
1345.000000	99.845906
1344.000000	99.846977
1343.000000	99.846412
1342.000000	99.840743
1341.000000	99.831317
1340.000000	99.826296
1339.000000	99.831541
1338.000000	99.841330
1337.000000	99.844157
1336.000000	99.835725
1335.000000	99.821909
1334.000000	99.811751
1333.000000	99.810937
1332.000000	99.819990
1331.000000	99.834320
1330.000000	99.845995
1329.000000	99.849652
1328.000000	99.847665
1327.000000	99.846829
1326.000000	99.849721
1325.000000	99.852759
1324.000000	99.853634
1323.000000	99.855571
1322.000000	99.861753
1321.000000	99.869490
1320.000000	99.873650
1319.000000	99.873625
1318.000000	99.873157
1317.000000	99.874249
1316.000000	99.874876
1315.000000	99.872413
1314.000000	99.866524
1313.000000	99.858945
1312.000000	99.852273
1311.000000	99.848529
1310.000000	99.847105
1309.000000	99.844701
1308.000000	99.838991
1307.000000	99.831840
1306.000000	99.826749
1305.000000	99.823764
1304.000000	99.820292
1303.000000	99.816910
1302.000000	99.818668
1301.000000	99.828455
1300.000000	99.841564
1299.000000	99.849775
1298.000000	99.849976
1297.000000	99.845785
1296.000000	99.840668
1295.000000	99.833363
1294.000000	99.822616
1293.000000	99.813781
1292.000000	99.815789
1291.000000	99.830231
1290.000000	99.846931
1289.000000	99.853685
1288.000000	99.849089
1287.000000	99.842639
1286.000000	99.842460
1285.000000	99.846570
1284.000000	99.847411
1283.000000	99.841798
1282.000000	99.834021
1281.000000	99.830572
1280.000000	99.834155
1279.000000	99.842419
1278.000000	99.850353
1277.000000	99.853672
1276.000000	99.851524
1275.000000	99.847036
1274.000000	99.844500
1273.000000	99.845167
1272.000000	99.845961
1271.000000	99.842913
1270.000000	99.835835
1269.000000	99.828828
1268.000000	99.825890
1267.000000	99.826949
1266.000000	99.829299
1265.000000	99.832377
1264.000000	99.838501
1263.000000	99.847751
1262.000000	99.855057
1261.000000	99.855796
1260.000000	99.853151
1259.000000	99.855623
1258.000000	99.866096
1257.000000	99.877052
1256.000000	99.878640
1255.000000	99.869187
1254.000000	99.855795
1253.000000	99.846522
1252.000000	99.844681
1251.000000	99.849450
1250.000000	99.858001
1249.000000	99.865912
1248.000000	99.868073
1247.000000	99.861924
1246.000000	99.850359
1245.000000	99.840646
1244.000000	99.839309
1243.000000	99.846718
1242.000000	99.856262
1241.000000	99.859883
1240.000000	99.855229
1239.000000	99.847213
1238.000000	99.842596
1237.000000	99.843851
1236.000000	99.848234
1235.000000	99.851060
1234.000000	99.849111
1233.000000	99.842608
1232.000000	99.835547
1231.000000	99.833246
1230.000000	99.837750
1229.000000	99.845610
1228.000000	99.850811
1227.000000	99.849568
1226.000000	99.842541
1225.000000	99.833988
1224.000000	99.829227
1223.000000	99.830807
1222.000000	99.835674
1221.000000	99.837814
1220.000000	99.835004
1219.000000	99.830785
1218.000000	99.828074
1217.000000	99.824207
1216.000000	99.816193
1215.000000	99.808231
1214.000000	99.808057
1213.000000	99.816025
1212.000000	99.823906
1211.000000	99.826136
1210.000000	99.826453
1209.000000	99.829934
1208.000000	99.833667
1207.000000	99.831121
1206.000000	99.822999
1205.000000	99.817139
1204.000000	99.817424
1203.000000	99.818427
1202.000000	99.813139
1201.000000	99.802131
1200.000000	99.792127
1199.000000	99.787711
1198.000000	99.787390
1197.000000	99.787299
1196.000000	99.786386
1195.000000	99.787195
1194.000000	99.792472
1193.000000	99.801667
1192.000000	99.811109
1191.000000	99.817859
1190.000000	99.822964
1189.000000	99.829806
1188.000000	99.839391
1187.000000	99.848782
1186.000000	99.854660
1185.000000	99.856843
1184.000000	99.857122
1183.000000	99.855918
1182.000000	99.851712
1181.000000	99.843511
1180.000000	99.832988
1179.000000	99.824111
1178.000000	99.820383
1177.000000	99.821625
1176.000000	99.823730
1175.000000	99.823002
1174.000000	99.820667
1173.000000	99.820869
1172.000000	99.824256
1171.000000	99.827230
1170.000000	99.828810
1169.000000	99.833472
1168.000000	99.843088
1167.000000	99.850265
1166.000000	99.846574
1165.000000	99.835914
1164.000000	99.832136
1163.000000	99.842409
1162.000000	99.859638
1161.000000	99.873243
1160.000000	99.879993
1159.000000	99.880178
1158.000000	99.870866
1157.000000	99.850945
1156.000000	99.828656
1155.000000	99.815355
1154.000000	99.812381
1153.000000	99.811397
1152.000000	99.807848
1151.000000	99.806649
1150.000000	99.812758
1149.000000	99.823085
1148.000000	99.831510
1147.000000	99.836541
1146.000000	99.838934
1145.000000	99.835303
1144.000000	99.820823
1143.000000	99.798932
1142.000000	99.783312
1141.000000	99.786531
1140.000000	99.806983
1139.000000	99.828529
1138.000000	99.834348
1137.000000	99.822005
1136.000000	99.804776
1135.000000	99.798098
1134.000000	99.805455
1133.000000	99.817826
1132.000000	99.824563
1131.000000	99.821953
1130.000000	99.812689
1129.000000	99.801373
1128.000000	99.791903
1127.000000	99.786084
1126.000000	99.782561
1125.000000	99.778843
1124.000000	99.775745
1123.000000	99.777654
1122.000000	99.786454
1121.000000	99.796877
1120.000000	99.800486
1119.000000	99.794120
1118.000000	99.783188
1117.000000	99.776980
1116.000000	99.781598
1115.000000	99.796298
1114.000000	99.814477
1113.000000	99.827646
1112.000000	99.829829
1111.000000	99.820698
1110.000000	99.806485
1109.000000	99.796998
1108.000000	99.798299
1107.000000	99.806065
1106.000000	99.808485
1105.000000	99.798654
1104.000000	99.782234
1103.000000	99.769670
1102.000000	99.762883
1101.000000	99.755015
1100.000000	99.742572
1099.000000	99.731127
1098.000000	99.727171
1097.000000	99.729461
1096.000000	99.732151
1095.000000	99.732297
1094.000000	99.730820
1093.000000	99.729575
1092.000000	99.731165
1091.000000	99.738219
1090.000000	99.748053
1089.000000	99.750474
1088.000000	99.736491
1087.000000	99.709634
1086.000000	99.685283
1085.000000	99.678318
1084.000000	99.692905
1083.000000	99.721881
1082.000000	99.752041
1081.000000	99.771157
1080.000000	99.774042
1079.000000	99.763001
1078.000000	99.741400
1077.000000	99.709319
1076.000000	99.669688
1075.000000	99.636182
1074.000000	99.626899
1073.000000	99.647085
1072.000000	99.682221
1071.000000	99.710710
1070.000000	99.721390
1069.000000	99.717621
1068.000000	99.708023
1067.000000	99.697724
1066.000000	99.687978
1065.000000	99.680487
1064.000000	99.679554
1063.000000	99.688689
1062.000000	99.704323
1061.000000	99.714558
1060.000000	99.707784
1059.000000	99.684268
1058.000000	99.657301
1057.000000	99.640913
1056.000000	99.637774
1055.000000	99.639873
1054.000000	99.638002
1053.000000	99.628103
1052.000000	99.611049
1051.000000	99.591723
1050.000000	99.578752
1049.000000	99.579344
1048.000000	99.590881
1047.000000	99.601119
1046.000000	99.600845
1045.000000	99.594375
1044.000000	99.593391
1043.000000	99.600962
1042.000000	99.606279
1041.000000	99.597933
1040.000000	99.578965
1039.000000	99.563650
1038.000000	99.560292
1037.000000	99.563282
1036.000000	99.564555
1035.000000	99.567015
1034.000000	99.579874
1033.000000	99.601722
1032.000000	99.615137
1031.000000	99.602118
1030.000000	99.562802
1029.000000	99.515848
1028.000000	99.481517
1027.000000	99.466656
1026.000000	99.464352
1025.000000	99.464313
1024.000000	99.462189
1023.000000	99.460449
1022.000000	99.462136
1021.000000	99.464328
1020.000000	99.458561
1019.000000	99.439341
1018.000000	99.412418
1017.000000	99.392609
1016.000000	99.392003
1015.000000	99.410327
1014.000000	99.435998
1013.000000	99.454734
1012.000000	99.457341
1011.000000	99.443289
1010.000000	99.420289
1009.000000	99.398860
1008.000000	99.384539
1007.000000	99.375880
1006.000000	99.370428
1005.000000	99.369059
1004.000000	99.371684
1003.000000	99.372724
1002.000000	99.366405
1001.000000	99.354105
1000.000000	99.340071
999.000000	 99.321921
998.000000	 99.294130
997.000000	 99.261354
996.000000	 99.238077
995.000000	 99.230551
994.000000	 99.227618
993.000000	 99.216199
992.000000	 99.199168
991.000000	 99.189634
990.000000	 99.192347
989.000000	 99.199824
988.000000	 99.203923
987.000000	 99.202093
986.000000	 99.193456
985.000000	 99.177769
984.000000	 99.159390
983.000000	 99.145134
982.000000	 99.136960
981.000000	 99.132350
980.000000	 99.130995
979.000000	 99.133414
978.000000	 99.133197
977.000000	 99.120338
976.000000	 99.095105
975.000000	 99.069750
974.000000	 99.051831
973.000000	 99.034152
972.000000	 99.008040
971.000000	 98.979887
970.000000	 98.965376
969.000000	 98.969583
968.000000	 98.980737
967.000000	 98.984212
966.000000	 98.977791
965.000000	 98.972015
964.000000	 98.977914
963.000000	 98.994985
962.000000	 99.010641
961.000000	 99.012432
960.000000	 99.000495
959.000000	 98.985596
958.000000	 98.975624
957.000000	 98.968874
956.000000	 98.961340
955.000000	 98.954096
954.000000	 98.950115
953.000000	 98.949576
952.000000	 98.952990
951.000000	 98.963951
950.000000	 98.983116
949.000000	 99.003173
948.000000	 99.015278
947.000000	 99.017510
946.000000	 99.012282
945.000000	 98.999716
944.000000	 98.980077
943.000000	 98.959046
942.000000	 98.942679
941.000000	 98.929397
940.000000	 98.914903
939.000000	 98.902566
938.000000	 98.899280
937.000000	 98.901747
936.000000	 98.897704
935.000000	 98.882806
934.000000	 98.865980
933.000000	 98.854357
932.000000	 98.843221
931.000000	 98.827371
930.000000	 98.813373
929.000000	 98.811011
928.000000	 98.817674
927.000000	 98.820416
926.000000	 98.810880
925.000000	 98.790182
924.000000	 98.761353
923.000000	 98.726644
922.000000	 98.693217
921.000000	 98.672889
920.000000	 98.672072
919.000000	 98.685672
918.000000	 98.702723
917.000000	 98.714329
916.000000	 98.715239
915.000000	 98.704263
914.000000	 98.688419
913.000000	 98.682703
912.000000	 98.698056
911.000000	 98.727208
910.000000	 98.746478
909.000000	 98.736538
908.000000	 98.702388
907.000000	 98.670492
906.000000	 98.663944
905.000000	 98.680867
904.000000	 98.699524
903.000000	 98.703711
902.000000	 98.698177
901.000000	 98.697321
900.000000	 98.705995
899.000000	 98.719035
898.000000	 98.734803
897.000000	 98.756741
896.000000	 98.779858
895.000000	 98.787899
894.000000	 98.772038
893.000000	 98.744795
892.000000	 98.725806
891.000000	 98.718089
890.000000	 98.707975
889.000000	 98.686543
888.000000	 98.660960
887.000000	 98.643518
886.000000	 98.638822
885.000000	 98.645399
884.000000	 98.661404
883.000000	 98.681409
882.000000	 98.692604
881.000000	 98.682946
880.000000	 98.653691
879.000000	 98.619314
878.000000	 98.594031
877.000000	 98.580769
876.000000	 98.573091
875.000000	 98.564279
874.000000	 98.552759
873.000000	 98.540205
872.000000	 98.526857
871.000000	 98.510613
870.000000	 98.490907
869.000000	 98.471014
868.000000	 98.453893
867.000000	 98.436378
866.000000	 98.410100
865.000000	 98.369147
864.000000	 98.316221
863.000000	 98.262325
862.000000	 98.221354
861.000000	 98.201487
860.000000	 98.197212
859.000000	 98.191094
858.000000	 98.169479
857.000000	 98.137092
856.000000	 98.110568
855.000000	 98.097193
854.000000	 98.087138
853.000000	 98.069161
852.000000	 98.045531
851.000000	 98.025108
850.000000	 98.007947
849.000000	 97.985229
848.000000	 97.952140
847.000000	 97.913965
846.000000	 97.881379
845.000000	 97.866019
844.000000	 97.878145
843.000000	 97.919278
842.000000	 97.974630
841.000000	 98.019098
840.000000	 98.034902
839.000000	 98.022749
838.000000	 97.996627
837.000000	 97.970376
836.000000	 97.949091
835.000000	 97.929773
834.000000	 97.907545
833.000000	 97.880716
832.000000	 97.849868
831.000000	 97.813992
830.000000	 97.772071
829.000000	 97.729850
828.000000	 97.699362
827.000000	 97.686358
826.000000	 97.681442
825.000000	 97.669923
824.000000	 97.648128
823.000000	 97.623737
822.000000	 97.602714
821.000000	 97.582784
820.000000	 97.557722
819.000000	 97.522377
818.000000	 97.476589
817.000000	 97.430215
816.000000	 97.401313
815.000000	 97.402256
814.000000	 97.427872
813.000000	 97.461532
812.000000	 97.490456
811.000000	 97.509274
810.000000	 97.512314
809.000000	 97.493573
808.000000	 97.457758
807.000000	 97.424140
806.000000	 97.412900
805.000000	 97.427271
804.000000	 97.450236
803.000000	 97.458876
802.000000	 97.444086
801.000000	 97.418694
800.000000	 97.405076
799.000000	 97.413168
798.000000	 97.432199
797.000000	 97.444613
796.000000	 97.443212
795.000000	 97.431738
794.000000	 97.414806
793.000000	 97.394596
792.000000	 97.375496
791.000000	 97.365319
790.000000	 97.370568
789.000000	 97.392100
788.000000	 97.423105
787.000000	 97.449434
786.000000	 97.456883
785.000000	 97.443350
784.000000	 97.420987
783.000000	 97.402844
782.000000	 97.391250
781.000000	 97.382364
780.000000	 97.375947
779.000000	 97.374374
778.000000	 97.376477
777.000000	 97.379263
776.000000	 97.382809
775.000000	 97.388076
774.000000	 97.393419
773.000000	 97.397862
772.000000	 97.403131
771.000000	 97.407839
770.000000	 97.406461
769.000000	 97.400762
768.000000	 97.404770
767.000000	 97.429250
766.000000	 97.466920
765.000000	 97.501297
764.000000	 97.524124
763.000000	 97.536659
762.000000	 97.542305
761.000000	 97.548264
760.000000	 97.565159
759.000000	 97.591406
758.000000	 97.606733
757.000000	 97.597099
756.000000	 97.577950
755.000000	 97.574423
754.000000	 97.585019
753.000000	 97.586617
752.000000	 97.572227
751.000000	 97.559409
750.000000	 97.559921
749.000000	 97.566298
748.000000	 97.576030
747.000000	 97.605436
746.000000	 97.664149
745.000000	 97.730806
744.000000	 97.769860
743.000000	 97.766162
742.000000	 97.734481
741.000000	 97.701804
740.000000	 97.685961
739.000000	 97.684359
738.000000	 97.679841
737.000000	 97.665246
736.000000	 97.661305
735.000000	 97.695443
734.000000	 97.760692
733.000000	 97.813650
732.000000	 97.821010
731.000000	 97.792863
730.000000	 97.762642
729.000000	 97.751851
728.000000	 97.765099
727.000000	 97.800161
726.000000	 97.844004
725.000000	 97.871181
724.000000	 97.864589
723.000000	 97.831823
722.000000	 97.792309
721.000000	 97.760833
720.000000	 97.752331
719.000000	 97.782372
718.000000	 97.843457
717.000000	 97.897738
716.000000	 97.913883
715.000000	 97.901756
714.000000	 97.892420
713.000000	 97.892206
712.000000	 97.883265
711.000000	 97.865749
710.000000	 97.866526
709.000000	 97.898054
708.000000	 97.935533
707.000000	 97.948318
706.000000	 97.935449
705.000000	 97.917202
704.000000	 97.907946
703.000000	 97.912214
702.000000	 97.932175
701.000000	 97.960459
700.000000	 97.975685
699.000000	 97.964518
698.000000	 97.943956
697.000000	 97.942954
696.000000	 97.961020
695.000000	 97.963251
694.000000	 97.924944
693.000000	 97.869069
692.000000	 97.847189
691.000000	 97.885865
690.000000	 97.960512
689.000000	 98.023673
688.000000	 98.053083
687.000000	 98.064401
686.000000	 98.078104
685.000000	 98.088085
684.000000	 98.072262
683.000000	 98.025881
682.000000	 97.972226
681.000000	 97.939919
680.000000	 97.936030
679.000000	 97.943652
678.000000	 97.940775
677.000000	 97.916274
676.000000	 97.870874
675.000000	 97.810520
674.000000	 97.747983
673.000000	 97.707301
672.000000	 97.714713
671.000000	 97.782936
670.000000	 97.907792
669.000000	 98.061370
668.000000	 98.164457
667.000000	 98.159315
666.000000	 98.093649
665.000000	 98.010181
664.000000	 97.916900
663.000000	 97.828110
662.000000	 97.768019
661.000000	 97.741044
660.000000	 97.728137
659.000000	 97.721486
658.000000	 97.746879
657.000000	 97.828683
656.000000	 97.968879
655.000000	 98.111587
654.000000	 98.187726
653.000000	 98.243458
652.000000	 98.242944
651.000000	 98.212030
650.000000	 98.165649  
