PE IR                   SPECTRUM    ASCII       PEDS        1.60        
  -1
~SP.SP
18/03/14
13:48:03.00
18/03/14
13:48:03.00
pili

650.000000
4









SPECTRUM 100,CPU32 MAIN 00.02.8200 12-DECEMBER-2006 10:00:00
MIR TGS
MIR
OPTKBR
78890
0.200000

4.000000
STRONG
RATIO
SPECTRUM
MAGNITUDE
UNIVERSAL ATR
DOUBLE

COMBINED


0


#HDR
-1
-1
#GR
CM-1
%T
0.00002384185791015625
0.0
4000.000000
-1.000000
3351
8
99.287353
89.165740
#DATA
4000.000000	98.925165 
3999.000000	98.929976 
3998.000000	98.937569 
3997.000000	98.948887 
3996.000000	98.948921 
3995.000000	98.944210 
3994.000000	98.938360 
3993.000000	98.933959 
3992.000000	98.931656 
3991.000000	98.930911 
3990.000000	98.930968 
3989.000000	98.931672 
3988.000000	98.933749 
3987.000000	98.937958 
3986.000000	98.943399 
3985.000000	98.946693 
3984.000000	98.943723 
3983.000000	98.933269 
3982.000000	98.919230 
3981.000000	98.908661 
3980.000000	98.906593 
3979.000000	98.912316 
3978.000000	98.920283 
3977.000000	98.924222 
3976.000000	98.920895 
3975.000000	98.911313 
3974.000000	98.899753 
3973.000000	98.891457 
3972.000000	98.889744 
3971.000000	98.893984 
3970.000000	98.900125 
3969.000000	98.903971 
3968.000000	98.904311 
3967.000000	98.902765 
3966.000000	98.901095 
3965.000000	98.899556 
3964.000000	98.898215 
3963.000000	98.899028 
3962.000000	98.905024 
3961.000000	98.916376 
3960.000000	98.928138 
3959.000000	98.933240 
3958.000000	98.928439 
3957.000000	98.917515 
3956.000000	98.908567 
3955.000000	98.907689 
3954.000000	98.914655 
3953.000000	98.923725 
3952.000000	98.928270 
3951.000000	98.925620 
3950.000000	98.918784 
3949.000000	98.914003 
3948.000000	98.915271 
3947.000000	98.920715 
3946.000000	98.924421 
3945.000000	98.921886 
3944.000000	98.914145 
3943.000000	98.906622 
3942.000000	98.903511 
3941.000000	98.903007 
3940.000000	98.899327 
3939.000000	98.889430 
3938.000000	98.877127 
3937.000000	98.870120 
3936.000000	98.872971 
3935.000000	98.883150 
3934.000000	98.894137 
3933.000000	98.901534 
3932.000000	98.905654 
3931.000000	98.908166 
3930.000000	98.908693 
3929.000000	98.906240 
3928.000000	98.902046 
3927.000000	98.899643 
3926.000000	98.901899 
3925.000000	98.907783 
3924.000000	98.913091 
3923.000000	98.914615 
3922.000000	98.912791 
3921.000000	98.910304 
3920.000000	98.908545 
3919.000000	98.906402 
3918.000000	98.902495 
3917.000000	98.897896 
3916.000000	98.895814 
3915.000000	98.898544 
3914.000000	98.905623 
3913.000000	98.914231 
3912.000000	98.920934 
3911.000000	98.923625 
3910.000000	98.922141 
3909.000000	98.918088 
3908.000000	98.913855 
3907.000000	98.911285 
3906.000000	98.911340 
3905.000000	98.913928 
3904.000000	98.918153 
3903.000000	98.922694 
3902.000000	98.925993 
3901.000000	98.926906 
3900.000000	98.925091 
3899.000000	98.920444 
3898.000000	98.913805 
3897.000000	98.907609 
3896.000000	98.905321 
3895.000000	98.909310 
3894.000000	98.918069 
3893.000000	98.926157 
3892.000000	98.929145 
3891.000000	98.928679 
3890.000000	98.930145 
3889.000000	98.935178 
3888.000000	98.939398 
3887.000000	98.937698 
3886.000000	98.932052 
3885.000000	98.930202 
3884.000000	98.935029 
3883.000000	98.940057 
3882.000000	98.936824 
3881.000000	98.925523 
3880.000000	98.916548 
3879.000000	98.918070 
3878.000000	98.928067 
3877.000000	98.939274 
3876.000000	98.946659 
3875.000000	98.949779 
3874.000000	98.949930 
3873.000000	98.946635 
3872.000000	98.939311 
3871.000000	98.931694 
3870.000000	98.931160 
3869.000000	98.939976 
3868.000000	98.949438 
3867.000000	98.948093 
3866.000000	98.933460 
3865.000000	98.915169 
3864.000000	98.906927 
3863.000000	98.912664 
3862.000000	98.924172 
3861.000000	98.933283 
3860.000000	98.939702 
3859.000000	98.947847 
3858.000000	98.960149 
3857.000000	98.974293 
3856.000000	98.985202 
3855.000000	98.989544 
3854.000000	98.987716 
3853.000000	98.983535 
3852.000000	98.977783 
3851.000000	98.968132 
3850.000000	98.953843 
3849.000000	98.937422 
3848.000000	98.921927 
3847.000000	98.910195 
3846.000000	98.904828 
3845.000000	98.909109 
3844.000000	98.926672 
3843.000000	98.956049 
3842.000000	98.986009 
3841.000000	99.000941 
3840.000000	98.991910 
3839.000000	98.965490 
3838.000000	98.940307 
3837.000000	98.930499 
3836.000000	98.935251 
3835.000000	98.944932 
3834.000000	98.951673 
3833.000000	98.954168 
3832.000000	98.954911 
3831.000000	98.955186 
3830.000000	98.953635 
3829.000000	98.948734 
3828.000000	98.942954 
3827.000000	98.943293 
3826.000000	98.954780 
3825.000000	98.974246 
3824.000000	98.991167 
3823.000000	98.994636 
3822.000000	98.983121 
3821.000000	98.969091 
3820.000000	98.966144 
3819.000000	98.974198 
3818.000000	98.982360 
3817.000000	98.980352 
3816.000000	98.967515 
3815.000000	98.950965 
3814.000000	98.936274 
3813.000000	98.924837 
3812.000000	98.917132 
3811.000000	98.914537 
3810.000000	98.917473 
3809.000000	98.923610 
3808.000000	98.929716 
3807.000000	98.935576 
3806.000000	98.943474 
3805.000000	98.953845 
3804.000000	98.962840 
3803.000000	98.965421 
3802.000000	98.961728 
3801.000000	98.958191 
3800.000000	98.958400 
3799.000000	98.958115 
3798.000000	98.951653 
3797.000000	98.940050 
3796.000000	98.931136 
3795.000000	98.929991 
3794.000000	98.932343 
3793.000000	98.930053 
3792.000000	98.920607 
3791.000000	98.909851 
3790.000000	98.905465 
3789.000000	98.909160 
3788.000000	98.916793 
3787.000000	98.924165 
3786.000000	98.930447 
3785.000000	98.935632 
3784.000000	98.936899 
3783.000000	98.929950 
3782.000000	98.913729 
3781.000000	98.892973 
3780.000000	98.876385 
3779.000000	98.871444 
3778.000000	98.878603 
3777.000000	98.891504 
3776.000000	98.901888 
3775.000000	98.904053 
3774.000000	98.897016 
3773.000000	98.885066 
3772.000000	98.876845 
3771.000000	98.881046 
3770.000000	98.899302 
3769.000000	98.922954 
3768.000000	98.939005 
3767.000000	98.939666 
3766.000000	98.927916 
3765.000000	98.914276 
3764.000000	98.907354 
3763.000000	98.908020 
3762.000000	98.912350 
3761.000000	98.917345 
3760.000000	98.922514 
3759.000000	98.927985 
3758.000000	98.931880 
3757.000000	98.931854 
3756.000000	98.928161 
3755.000000	98.922984 
3754.000000	98.917752 
3753.000000	98.911954 
3752.000000	98.905900 
3751.000000	98.904345 
3750.000000	98.913360 
3749.000000	98.932588 
3748.000000	98.954768 
3747.000000	98.969579 
3746.000000	98.967356 
3745.000000	98.946527 
3744.000000	98.918302 
3743.000000	98.892712 
3742.000000	98.871035 
3741.000000	98.852849 
3740.000000	98.838765 
3739.000000	98.829217 
3738.000000	98.824742 
3737.000000	98.828005 
3736.000000	98.844337 
3735.000000	98.874478 
3734.000000	98.907879 
3733.000000	98.928566 
3732.000000	98.928129 
3731.000000	98.910095 
3730.000000	98.883559 
3729.000000	98.856315 
3728.000000	98.834051 
3727.000000	98.820954 
3726.000000	98.817505 
3725.000000	98.819516 
3724.000000	98.822736 
3723.000000	98.827381 
3722.000000	98.836782 
3721.000000	98.851596 
3720.000000	98.865440 
3719.000000	98.869962 
3718.000000	98.863864 
3717.000000	98.854609 
3716.000000	98.852067 
3715.000000	98.860109 
3714.000000	98.874746 
3713.000000	98.888639 
3712.000000	98.897471 
3711.000000	98.902513 
3710.000000	98.906396 
3709.000000	98.910052 
3708.000000	98.913411 
3707.000000	98.915243 
3706.000000	98.912353 
3705.000000	98.901307 
3704.000000	98.881346 
3703.000000	98.857428 
3702.000000	98.838438 
3701.000000	98.831549 
3700.000000	98.836225 
3699.000000	98.844975 
3698.000000	98.849835 
3697.000000	98.847817 
3696.000000	98.843486 
3695.000000	98.845692 
3694.000000	98.860893 
3693.000000	98.887865 
3692.000000	98.918334 
3691.000000	98.941522 
3690.000000	98.949857 
3689.000000	98.943388 
3688.000000	98.928781 
3687.000000	98.913319 
3686.000000	98.901631 
3685.000000	98.896050 
3684.000000	98.895250 
3683.000000	98.895311 
3682.000000	98.893380 
3681.000000	98.891654 
3680.000000	98.895791 
3679.000000	98.907327 
3678.000000	98.919223 
3677.000000	98.920513 
3676.000000	98.908338 
3675.000000	98.894099 
3674.000000	98.887658 
3673.000000	98.885772 
3672.000000	98.879804 
3671.000000	98.867126 
3670.000000	98.854109 
3669.000000	98.847595 
3668.000000	98.846317 
3667.000000	98.845562 
3666.000000	98.845389 
3665.000000	98.849797 
3664.000000	98.860403 
3663.000000	98.873064 
3662.000000	98.880653 
3661.000000	98.879150 
3660.000000	98.870575 
3659.000000	98.860411 
3658.000000	98.854757 
3657.000000	98.858516 
3656.000000	98.872746 
3655.000000	98.891885 
3654.000000	98.905802 
3653.000000	98.905783 
3652.000000	98.889677 
3651.000000	98.865747 
3650.000000	98.848687 
3649.000000	98.846821 
3648.000000	98.855751 
3647.000000	98.866807 
3646.000000	98.875888 
3645.000000	98.882824 
3644.000000	98.887594 
3643.000000	98.889637 
3642.000000	98.888765 
3641.000000	98.885397 
3640.000000	98.880645 
3639.000000	98.876229 
3638.000000	98.873792 
3637.000000	98.873277 
3636.000000	98.873091 
3635.000000	98.872892 
3634.000000	98.874865 
3633.000000	98.880674 
3632.000000	98.887296 
3631.000000	98.887576 
3630.000000	98.878002 
3629.000000	98.865981 
3628.000000	98.860712 
3627.000000	98.859426 
3626.000000	98.853581 
3625.000000	98.841641 
3624.000000	98.831172 
3623.000000	98.832256 
3622.000000	98.849077 
3621.000000	98.876009 
3620.000000	98.900421 
3619.000000	98.911137 
3618.000000	98.904707 
3617.000000	98.884539 
3616.000000	98.858582 
3615.000000	98.838234 
3614.000000	98.833412 
3613.000000	98.844295 
3612.000000	98.859018 
3611.000000	98.862210 
3610.000000	98.847523 
3609.000000	98.822379 
3608.000000	98.801015 
3607.000000	98.792029 
3606.000000	98.793031 
3605.000000	98.797030 
3604.000000	98.800122 
3603.000000	98.804182 
3602.000000	98.814161 
3601.000000	98.832268 
3600.000000	98.854227 
3599.000000	98.872581 
3598.000000	98.883206 
3597.000000	98.886755 
3596.000000	98.886197 
3595.000000	98.883504 
3594.000000	98.879277 
3593.000000	98.873578 
3592.000000	98.866399 
3591.000000	98.857461 
3590.000000	98.847831 
3589.000000	98.841134 
3588.000000	98.841474 
3587.000000	98.848547 
3586.000000	98.856707 
3585.000000	98.860545 
3584.000000	98.859881 
3583.000000	98.859054 
3582.000000	98.862673 
3581.000000	98.870379 
3580.000000	98.876019 
3579.000000	98.873420 
3578.000000	98.863976 
3577.000000	98.856345 
3576.000000	98.857966 
3575.000000	98.867891 
3574.000000	98.878840 
3573.000000	98.885116 
3572.000000	98.886248 
3571.000000	98.883367 
3570.000000	98.875921 
3569.000000	98.863687 
3568.000000	98.850503 
3567.000000	98.842056 
3566.000000	98.839406 
3565.000000	98.838781 
3564.000000	98.837840 
3563.000000	98.837782 
3562.000000	98.839631 
3561.000000	98.841126 
3560.000000	98.838722 
3559.000000	98.832222 
3558.000000	98.826326 
3557.000000	98.827034 
3556.000000	98.836295 
3555.000000	98.849731 
3554.000000	98.859294 
3553.000000	98.859482 
3552.000000	98.852107 
3551.000000	98.844025 
3550.000000	98.840277 
3549.000000	98.840837 
3548.000000	98.843659 
3547.000000	98.848651 
3546.000000	98.856789 
3545.000000	98.865937 
3544.000000	98.871232 
3543.000000	98.870610 
3542.000000	98.867175 
3541.000000	98.864322 
3540.000000	98.859963 
3539.000000	98.848344 
3538.000000	98.828646 
3537.000000	98.809509 
3536.000000	98.802550 
3535.000000	98.811349 
3534.000000	98.829461 
3533.000000	98.847977 
3532.000000	98.862222 
3531.000000	98.870889 
3530.000000	98.872446 
3529.000000	98.865434 
3528.000000	98.851531 
3527.000000	98.835418 
3526.000000	98.821283 
3525.000000	98.811548 
3524.000000	98.809053 
3523.000000	98.817612 
3522.000000	98.838317 
3521.000000	98.866218 
3520.000000	98.891979 
3519.000000	98.906908 
3518.000000	98.907102 
3517.000000	98.894410 
3516.000000	98.874661 
3515.000000	98.854245 
3514.000000	98.836857 
3513.000000	98.822909 
3512.000000	98.812338 
3511.000000	98.807301 
3510.000000	98.810579 
3509.000000	98.820994 
3508.000000	98.832467 
3507.000000	98.839039 
3506.000000	98.839999 
3505.000000	98.838977 
3504.000000	98.839096 
3503.000000	98.840395 
3502.000000	98.842316 
3501.000000	98.846258 
3500.000000	98.853528 
3499.000000	98.861714 
3498.000000	98.865467 
3497.000000	98.861739 
3496.000000	98.853347 
3495.000000	98.846471 
3494.000000	98.845166 
3493.000000	98.848597 
3492.000000	98.852471 
3491.000000	98.851898 
3490.000000	98.844066 
3489.000000	98.830410 
3488.000000	98.816644 
3487.000000	98.809218 
3486.000000	98.810272 
3485.000000	98.815898 
3484.000000	98.819776 
3483.000000	98.818984 
3482.000000	98.816896 
3481.000000	98.819946 
3480.000000	98.831036 
3479.000000	98.846273 
3478.000000	98.858415 
3477.000000	98.862995 
3476.000000	98.860434 
3475.000000	98.853417 
3474.000000	98.844566 
3473.000000	98.837336 
3472.000000	98.836169 
3471.000000	98.842609 
3470.000000	98.851909 
3469.000000	98.856549 
3468.000000	98.853508 
3467.000000	98.846434 
3466.000000	98.840749 
3465.000000	98.839063 
3464.000000	98.841545 
3463.000000	98.847323 
3462.000000	98.853580 
3461.000000	98.855989 
3460.000000	98.853144 
3459.000000	98.849656 
3458.000000	98.852011 
3457.000000	98.860999 
3456.000000	98.870201 
3455.000000	98.872187 
3454.000000	98.865364 
3453.000000	98.854269 
3452.000000	98.844213 
3451.000000	98.836382 
3450.000000	98.827989 
3449.000000	98.817255 
3448.000000	98.807766 
3447.000000	98.806474 
3446.000000	98.816397 
3445.000000	98.832898 
3444.000000	98.848253 
3443.000000	98.858053 
3442.000000	98.862079 
3441.000000	98.861020 
3440.000000	98.855418 
3439.000000	98.847689 
3438.000000	98.842117 
3437.000000	98.841253 
3436.000000	98.843450 
3435.000000	98.844731 
3434.000000	98.842333 
3433.000000	98.836063 
3432.000000	98.827577 
3431.000000	98.819400 
3430.000000	98.814047 
3429.000000	98.813018 
3428.000000	98.815853 
3427.000000	98.819710 
3426.000000	98.820342 
3425.000000	98.815178 
3424.000000	98.806549 
3423.000000	98.800677 
3422.000000	98.801885 
3421.000000	98.808598 
3420.000000	98.816812 
3419.000000	98.825811 
3418.000000	98.837258 
3417.000000	98.849204 
3416.000000	98.855213 
3415.000000	98.851132 
3414.000000	98.840247 
3413.000000	98.829946 
3412.000000	98.825052 
3411.000000	98.826245 
3410.000000	98.832702 
3409.000000	98.842839 
3408.000000	98.852717 
3407.000000	98.857178 
3406.000000	98.854647 
3405.000000	98.849868 
3404.000000	98.850224 
3403.000000	98.858536 
3402.000000	98.869761 
3401.000000	98.875570 
3400.000000	98.872701 
3399.000000	98.866288 
3398.000000	98.864392 
3397.000000	98.869726 
3396.000000	98.877983 
3395.000000	98.883883 
3394.000000	98.886604 
3393.000000	98.888431 
3392.000000	98.890295 
3391.000000	98.890587 
3390.000000	98.887486 
3389.000000	98.880568 
3388.000000	98.870709 
3387.000000	98.860325 
3386.000000	98.853613 
3385.000000	98.854381 
3384.000000	98.862550 
3383.000000	98.873456 
3382.000000	98.881035 
3381.000000	98.881141 
3380.000000	98.872389 
3379.000000	98.856221 
3378.000000	98.837588 
3377.000000	98.824265 
3376.000000	98.822737 
3375.000000	98.833241 
3374.000000	98.849068 
3373.000000	98.861343 
3372.000000	98.865390 
3371.000000	98.863630 
3370.000000	98.863045 
3369.000000	98.869169 
3368.000000	98.880944 
3367.000000	98.890747 
3366.000000	98.890293 
3365.000000	98.877883 
3364.000000	98.860249 
3363.000000	98.847155 
3362.000000	98.844124 
3361.000000	98.849911 
3360.000000	98.859555 
3359.000000	98.868256 
3358.000000	98.872795 
3357.000000	98.871605 
3356.000000	98.865306 
3355.000000	98.856795 
3354.000000	98.849458 
3353.000000	98.844972 
3352.000000	98.842914 
3351.000000	98.841882 
3350.000000	98.840637 
3349.000000	98.839146 
3348.000000	98.839597 
3347.000000	98.845576 
3346.000000	98.858613 
3345.000000	98.875458 
3344.000000	98.889914 
3343.000000	98.897442 
3342.000000	98.897062 
3341.000000	98.889379 
3340.000000	98.875228 
3339.000000	98.857377 
3338.000000	98.841630 
3337.000000	98.833596 
3336.000000	98.833737 
3335.000000	98.836498 
3334.000000	98.834924 
3333.000000	98.826118 
3332.000000	98.812863 
3331.000000	98.800984 
3330.000000	98.795486 
3329.000000	98.798404 
3328.000000	98.808811 
3327.000000	98.823600 
3326.000000	98.838513 
3325.000000	98.850056 
3324.000000	98.857641 
3323.000000	98.863294 
3322.000000	98.868317 
3321.000000	98.870920 
3320.000000	98.868334 
3319.000000	98.860674 
3318.000000	98.851182 
3317.000000	98.842830 
3316.000000	98.836561 
3315.000000	98.833047 
3314.000000	98.833820 
3313.000000	98.839020 
3312.000000	98.845342 
3311.000000	98.848162 
3310.000000	98.845831 
3309.000000	98.840748 
3308.000000	98.835787 
3307.000000	98.830377 
3306.000000	98.821169 
3305.000000	98.807446 
3304.000000	98.795417 
3303.000000	98.794823 
3302.000000	98.809153 
3301.000000	98.830012 
3300.000000	98.843935 
3299.000000	98.845244 
3298.000000	98.840062 
3297.000000	98.837366 
3296.000000	98.839089 
3295.000000	98.840945 
3294.000000	98.840111 
3293.000000	98.838361 
3292.000000	98.838299 
3291.000000	98.839930 
3290.000000	98.841946 
3289.000000	98.844071 
3288.000000	98.846644 
3287.000000	98.849230 
3286.000000	98.851224 
3285.000000	98.853472 
3284.000000	98.857748 
3283.000000	98.863919 
3282.000000	98.868061 
3281.000000	98.864470 
3280.000000	98.850671 
3279.000000	98.830875 
3278.000000	98.814190 
3277.000000	98.808627 
3276.000000	98.815789 
3275.000000	98.830114 
3274.000000	98.842714 
3273.000000	98.847174 
3272.000000	98.843844 
3271.000000	98.839097 
3270.000000	98.839054 
3269.000000	98.843344 
3268.000000	98.846148 
3267.000000	98.843907 
3266.000000	98.840155 
3265.000000	98.841190 
3264.000000	98.848294 
3263.000000	98.856585 
3262.000000	98.860927 
3261.000000	98.860416 
3260.000000	98.856798 
3259.000000	98.851168 
3258.000000	98.844079 
3257.000000	98.837491 
3256.000000	98.834268 
3255.000000	98.835279 
3254.000000	98.838128 
3253.000000	98.839486 
3252.000000	98.838746 
3251.000000	98.839181 
3250.000000	98.844975 
3249.000000	98.856213 
3248.000000	98.866506 
3247.000000	98.866937 
3246.000000	98.854364 
3245.000000	98.836226 
3244.000000	98.825512 
3243.000000	98.829564 
3242.000000	98.844094 
3241.000000	98.858568 
3240.000000	98.866308 
3239.000000	98.868119 
3238.000000	98.867222 
3237.000000	98.864004 
3236.000000	98.857406 
3235.000000	98.849318 
3234.000000	98.844677 
3233.000000	98.847082 
3232.000000	98.855756 
3231.000000	98.866737 
3230.000000	98.875768 
3229.000000	98.880305 
3228.000000	98.880338 
3227.000000	98.877625 
3226.000000	98.873325 
3225.000000	98.866609 
3224.000000	98.856667 
3223.000000	98.845403 
3222.000000	98.836109 
3221.000000	98.829521 
3220.000000	98.823423 
3219.000000	98.817130 
3218.000000	98.814594 
3217.000000	98.821481 
3216.000000	98.839378 
3215.000000	98.862795 
3214.000000	98.881132 
3213.000000	98.884672 
3212.000000	98.871490 
3211.000000	98.849793 
3210.000000	98.832017 
3209.000000	98.825496 
3208.000000	98.829460 
3207.000000	98.840205 
3206.000000	98.855563 
3205.000000	98.872944 
3204.000000	98.886560 
3203.000000	98.890410 
3202.000000	98.883584 
3201.000000	98.870754 
3200.000000	98.858149 
3199.000000	98.850163 
3198.000000	98.848066 
3197.000000	98.849709 
3196.000000	98.851596 
3195.000000	98.853333 
3194.000000	98.858895 
3193.000000	98.871099 
3192.000000	98.885955 
3191.000000	98.895649 
3190.000000	98.897111 
3189.000000	98.894711 
3188.000000	98.893848 
3187.000000	98.894610 
3186.000000	98.893216 
3185.000000	98.887860 
3184.000000	98.880959 
3183.000000	98.875931 
3182.000000	98.873447 
3181.000000	98.871925 
3180.000000	98.871455 
3179.000000	98.875444 
3178.000000	98.886044 
3177.000000	98.898177 
3176.000000	98.901544 
3175.000000	98.890910 
3174.000000	98.872645 
3173.000000	98.858538 
3172.000000	98.854159 
3171.000000	98.855648 
3170.000000	98.856751 
3169.000000	98.855468 
3168.000000	98.853703 
3167.000000	98.853986 
3166.000000	98.857961 
3165.000000	98.865418 
3164.000000	98.873046 
3163.000000	98.876082 
3162.000000	98.873575 
3161.000000	98.871357 
3160.000000	98.877704 
3159.000000	98.895004 
3158.000000	98.915687 
3157.000000	98.926846 
3156.000000	98.920301 
3155.000000	98.899686 
3154.000000	98.877610 
3153.000000	98.864836 
3152.000000	98.862162 
3151.000000	98.863046 
3150.000000	98.862525 
3149.000000	98.861497 
3148.000000	98.863299 
3147.000000	98.869057 
3146.000000	98.876864 
3145.000000	98.883220 
3144.000000	98.884595 
3143.000000	98.879495 
3142.000000	98.869803 
3141.000000	98.858643 
3140.000000	98.846923 
3139.000000	98.834219 
3138.000000	98.823284 
3137.000000	98.820236 
3136.000000	98.828081 
3135.000000	98.842348 
3134.000000	98.855745 
3133.000000	98.865830 
3132.000000	98.875601 
3131.000000	98.887461 
3130.000000	98.899413 
3129.000000	98.907297 
3128.000000	98.908646 
3127.000000	98.904034 
3126.000000	98.896247 
3125.000000	98.888640 
3124.000000	98.883057 
3123.000000	98.878818 
3122.000000	98.874565 
3121.000000	98.871139 
3120.000000	98.871280 
3119.000000	98.875789 
3118.000000	98.881160 
3117.000000	98.882623 
3116.000000	98.879702 
3115.000000	98.877556 
3114.000000	98.881830 
3113.000000	98.892357 
3112.000000	98.902931 
3111.000000	98.907740 
3110.000000	98.907068 
3109.000000	98.905513 
3108.000000	98.905237 
3107.000000	98.903044 
3106.000000	98.895000 
3105.000000	98.882606 
3104.000000	98.872783 
3103.000000	98.871979 
3102.000000	98.881001 
3101.000000	98.894887 
3100.000000	98.906415 
3099.000000	98.910054 
3098.000000	98.904962 
3097.000000	98.896148 
3096.000000	98.891821 
3095.000000	98.896858 
3094.000000	98.907690 
3093.000000	98.914684 
3092.000000	98.910862 
3091.000000	98.898413 
3090.000000	98.886283 
3089.000000	98.881627 
3088.000000	98.884119 
3087.000000	98.888174 
3086.000000	98.889634 
3085.000000	98.889818 
3084.000000	98.893282 
3083.000000	98.901924 
3082.000000	98.911469 
3081.000000	98.914592 
3080.000000	98.908338 
3079.000000	98.897761 
3078.000000	98.890939 
3077.000000	98.890630 
3076.000000	98.892554 
3075.000000	98.891868 
3074.000000	98.889066 
3073.000000	98.888444 
3072.000000	98.892537 
3071.000000	98.899849 
3070.000000	98.906959 
3069.000000	98.911082 
3068.000000	98.911288 
3067.000000	98.909021 
3066.000000	98.907148 
3065.000000	98.906977 
3064.000000	98.906530 
3063.000000	98.903599 
3062.000000	98.900327 
3061.000000	98.902433 
3060.000000	98.912667 
3059.000000	98.926251 
3058.000000	98.934229 
3057.000000	98.931254 
3056.000000	98.919763 
3055.000000	98.907011 
3054.000000	98.898982 
3053.000000	98.897353 
3052.000000	98.901240 
3051.000000	98.910065 
3050.000000	98.923097 
3049.000000	98.936506 
3048.000000	98.943486 
3047.000000	98.939635 
3046.000000	98.927788 
3045.000000	98.915812 
3044.000000	98.909520 
3043.000000	98.908953 
3042.000000	98.911043 
3041.000000	98.913427 
3040.000000	98.914744 
3039.000000	98.913462 
3038.000000	98.908898 
3037.000000	98.903079 
3036.000000	98.899605 
3035.000000	98.900095 
3034.000000	98.902724 
3033.000000	98.904878 
3032.000000	98.906637 
3031.000000	98.910722 
3030.000000	98.918809 
3029.000000	98.928459 
3028.000000	98.934341 
3027.000000	98.932610 
3026.000000	98.923940 
3025.000000	98.912498 
3024.000000	98.902807 
3023.000000	98.897879 
3022.000000	98.899158 
3021.000000	98.906514 
3020.000000	98.917700 
3019.000000	98.928527 
3018.000000	98.934369 
3017.000000	98.932393 
3016.000000	98.923524 
3015.000000	98.912702 
3014.000000	98.906113 
3013.000000	98.906604 
3012.000000	98.911480 
3011.000000	98.915262 
3010.000000	98.914631 
3009.000000	98.910632 
3008.000000	98.907112 
3007.000000	98.907816 
3006.000000	98.913879 
3005.000000	98.922463 
3004.000000	98.928254 
3003.000000	98.928044 
3002.000000	98.923936 
3001.000000	98.920740 
3000.000000	98.920137 
2999.000000	98.918860 
2998.000000	98.912926 
2997.000000	98.902431 
2996.000000	98.892031 
2995.000000	98.887858 
2994.000000	98.893722 
2993.000000	98.908116 
2992.000000	98.924061 
2991.000000	98.933817 
2990.000000	98.935326 
2989.000000	98.933285 
2988.000000	98.933060 
2987.000000	98.935168 
2986.000000	98.937001 
2985.000000	98.937943 
2984.000000	98.939648 
2983.000000	98.941328 
2982.000000	98.937883 
2981.000000	98.924628 
2980.000000	98.903339 
2979.000000	98.882529 
2978.000000	98.871537 
2977.000000	98.873983 
2976.000000	98.885941 
2975.000000	98.899797 
2974.000000	98.910197 
2973.000000	98.916861 
2972.000000	98.922368 
2971.000000	98.928211 
2970.000000	98.933604 
2969.000000	98.937200 
2968.000000	98.938350 
2967.000000	98.936629 
2966.000000	98.931729 
2965.000000	98.924635 
2964.000000	98.917743 
2963.000000	98.912582 
2962.000000	98.908137 
2961.000000	98.902865 
2960.000000	98.898085 
2959.000000	98.897642 
2958.000000	98.903525 
2957.000000	98.913016 
2956.000000	98.921113 
2955.000000	98.924848 
2954.000000	98.924368 
2953.000000	98.920850 
2952.000000	98.915285 
2951.000000	98.909009 
2950.000000	98.903290 
2949.000000	98.897745 
2948.000000	98.890975 
2947.000000	98.883829 
2946.000000	98.880369 
2945.000000	98.883816 
2944.000000	98.892467 
2943.000000	98.901414 
2942.000000	98.907640 
2941.000000	98.911332 
2940.000000	98.912517 
2939.000000	98.909124 
2938.000000	98.899457 
2937.000000	98.884920 
2936.000000	98.869197 
2935.000000	98.855971 
2934.000000	98.848055 
2933.000000	98.846709 
2932.000000	98.849861 
2931.000000	98.852314 
2930.000000	98.850178 
2929.000000	98.845082 
2928.000000	98.842291 
2927.000000	98.844612 
2926.000000	98.849956 
2925.000000	98.854980 
2924.000000	98.858868 
2923.000000	98.862362 
2922.000000	98.865261 
2921.000000	98.867372 
2920.000000	98.870990 
2919.000000	98.879376 
2918.000000	98.891853 
2917.000000	98.902588 
2916.000000	98.906201 
2915.000000	98.903830 
2914.000000	98.901974 
2913.000000	98.905302 
2912.000000	98.911585 
2911.000000	98.913774 
2910.000000	98.906531 
2909.000000	98.891276 
2908.000000	98.876039 
2907.000000	98.869826 
2906.000000	98.875373 
2905.000000	98.886903 
2904.000000	98.896139 
2903.000000	98.900125 
2902.000000	98.901901 
2901.000000	98.903582 
2900.000000	98.903008 
2899.000000	98.898604 
2898.000000	98.893953 
2897.000000	98.894179 
2896.000000	98.899501 
2895.000000	98.906280 
2894.000000	98.913477 
2893.000000	98.923829 
2892.000000	98.938110 
2891.000000	98.952199 
2890.000000	98.961407 
2889.000000	98.964649 
2888.000000	98.962779 
2887.000000	98.956088 
2886.000000	98.946150 
2885.000000	98.937567 
2884.000000	98.934353 
2883.000000	98.935548 
2882.000000	98.937103 
2881.000000	98.937317 
2880.000000	98.937767 
2879.000000	98.939836 
2878.000000	98.943349 
2877.000000	98.948139 
2876.000000	98.953527 
2875.000000	98.956075 
2874.000000	98.951712 
2873.000000	98.941756 
2872.000000	98.933608 
2871.000000	98.933072 
2870.000000	98.938189 
2869.000000	98.943017 
2868.000000	98.945379 
2867.000000	98.947433 
2866.000000	98.949797 
2865.000000	98.949320 
2864.000000	98.943666 
2863.000000	98.934982 
2862.000000	98.927195 
2861.000000	98.921757 
2860.000000	98.917977 
2859.000000	98.916232 
2858.000000	98.918404 
2857.000000	98.924895 
2856.000000	98.932466 
2855.000000	98.935740 
2854.000000	98.931156 
2853.000000	98.920269 
2852.000000	98.909411 
2851.000000	98.905182 
2850.000000	98.909343 
2849.000000	98.918147 
2848.000000	98.926723 
2847.000000	98.933203 
2846.000000	98.938340 
2845.000000	98.942585 
2844.000000	98.945137 
2843.000000	98.945362 
2842.000000	98.943804 
2841.000000	98.941911 
2840.000000	98.941761 
2839.000000	98.945742 
2838.000000	98.955015 
2837.000000	98.967771 
2836.000000	98.979734 
2835.000000	98.986729 
2834.000000	98.986705 
2833.000000	98.980125 
2832.000000	98.969855 
2831.000000	98.960551 
2830.000000	98.956439 
2829.000000	98.958561 
2828.000000	98.964450 
2827.000000	98.970624 
2826.000000	98.974884 
2825.000000	98.976663 
2824.000000	98.976547 
2823.000000	98.975824 
2822.000000	98.975276 
2821.000000	98.973933 
2820.000000	98.970064 
2819.000000	98.963832 
2818.000000	98.957818 
2817.000000	98.954322 
2816.000000	98.953279 
2815.000000	98.953458 
2814.000000	98.954306 
2813.000000	98.955500 
2812.000000	98.955877 
2811.000000	98.954455 
2810.000000	98.952051 
2809.000000	98.950669 
2808.000000	98.951584 
2807.000000	98.954934 
2806.000000	98.960547 
2805.000000	98.967833 
2804.000000	98.975009 
2803.000000	98.979633 
2802.000000	98.980215 
2801.000000	98.977105 
2800.000000	98.972438 
2799.000000	98.969792 
2798.000000	98.972765 
2797.000000	98.982171 
2796.000000	98.994452 
2795.000000	99.003739 
2794.000000	99.005552 
2793.000000	98.998575 
2792.000000	98.984586 
2791.000000	98.968400 
2790.000000	98.956566 
2789.000000	98.953040 
2788.000000	98.955454 
2787.000000	98.957734 
2786.000000	98.957117 
2785.000000	98.956474 
2784.000000	98.958601 
2783.000000	98.960759 
2782.000000	98.957956 
2781.000000	98.951051 
2780.000000	98.948210 
2779.000000	98.956417 
2778.000000	98.972705 
2777.000000	98.985885 
2776.000000	98.987233 
2775.000000	98.978514 
2774.000000	98.969162 
2773.000000	98.966856 
2772.000000	98.971873 
2771.000000	98.979424 
2770.000000	98.985107 
2769.000000	98.987535 
2768.000000	98.987716 
2767.000000	98.987608 
2766.000000	98.988641 
2765.000000	98.990409 
2764.000000	98.991150 
2763.000000	98.990098 
2762.000000	98.988342 
2761.000000	98.986381 
2760.000000	98.982385 
2759.000000	98.975229 
2758.000000	98.968643 
2757.000000	98.969290 
2756.000000	98.979535 
2755.000000	98.993885 
2754.000000	99.003975 
2753.000000	99.006038 
2752.000000	99.002473 
2751.000000	98.997326 
2750.000000	98.992255 
2749.000000	98.987020 
2748.000000	98.982221 
2747.000000	98.980041 
2746.000000	98.982170 
2745.000000	98.987786 
2744.000000	98.994295 
2743.000000	98.999726 
2742.000000	99.003461 
2741.000000	99.004855 
2740.000000	99.003026 
2739.000000	98.999078 
2738.000000	98.996750 
2737.000000	98.998499 
2736.000000	99.001469 
2735.000000	98.999942 
2734.000000	98.992294 
2733.000000	98.983620 
2732.000000	98.980647 
2731.000000	98.985436 
2730.000000	98.994761 
2729.000000	99.003770 
2728.000000	99.008905 
2727.000000	99.008614 
2726.000000	99.003457 
2725.000000	98.995899 
2724.000000	98.989092 
2723.000000	98.985505 
2722.000000	98.986470 
2721.000000	98.991795 
2720.000000	98.998797 
2719.000000	99.002543 
2718.000000	98.998984 
2717.000000	98.988799 
2716.000000	98.977766 
2715.000000	98.972411 
2714.000000	98.974532 
2713.000000	98.979736 
2712.000000	98.981887 
2711.000000	98.979651 
2710.000000	98.978264 
2709.000000	98.983808 
2708.000000	98.995957 
2707.000000	99.007657 
2706.000000	99.012266 
2705.000000	99.009828 
2704.000000	99.005775 
2703.000000	99.004842 
2702.000000	99.007438 
2701.000000	99.011033 
2700.000000	99.013461 
2699.000000	99.014493 
2698.000000	99.014827 
2697.000000	99.014109 
2696.000000	99.010521 
2695.000000	99.003064 
2694.000000	98.994033 
2693.000000	98.987896 
2692.000000	98.987123 
2691.000000	98.990080 
2690.000000	98.993563 
2689.000000	98.996240 
2688.000000	98.998592 
2687.000000	99.000494 
2686.000000	99.000486 
2685.000000	98.997349 
2684.000000	98.991435 
2683.000000	98.984488 
2682.000000	98.978715 
2681.000000	98.975690 
2680.000000	98.975475 
2679.000000	98.977147 
2678.000000	98.980521 
2677.000000	98.986360 
2676.000000	98.993931 
2675.000000	98.999591 
2674.000000	98.999832 
2673.000000	98.995698 
2672.000000	98.992353 
2671.000000	98.993636 
2670.000000	98.998116 
2669.000000	99.001016 
2668.000000	98.999215 
2667.000000	98.994054 
2666.000000	98.990169 
2665.000000	98.991887 
2664.000000	98.999687 
2663.000000	99.009310 
2662.000000	99.014922 
2661.000000	99.013926 
2660.000000	99.008476 
2659.000000	99.002101 
2658.000000	98.995815 
2657.000000	98.988423 
2656.000000	98.979948 
2655.000000	98.973072 
2654.000000	98.970618 
2653.000000	98.972370 
2652.000000	98.975144 
2651.000000	98.975769 
2650.000000	98.973487 
2649.000000	98.969621 
2648.000000	98.965886 
2647.000000	98.963632 
2646.000000	98.963994 
2645.000000	98.967300 
2644.000000	98.971821 
2643.000000	98.974232 
2642.000000	98.972507 
2641.000000	98.968153 
2640.000000	98.964739 
2639.000000	98.964518 
2638.000000	98.967330 
2637.000000	98.972253 
2636.000000	98.978432 
2635.000000	98.983629 
2634.000000	98.983867 
2633.000000	98.976717 
2632.000000	98.965126 
2631.000000	98.956487 
2630.000000	98.956819 
2629.000000	98.965560 
2628.000000	98.975809 
2627.000000	98.979538 
2626.000000	98.973194 
2625.000000	98.959654 
2624.000000	98.945772 
2623.000000	98.937860 
2622.000000	98.938379 
2621.000000	98.945591 
2620.000000	98.955510 
2619.000000	98.964480 
2618.000000	98.970958 
2617.000000	98.975673 
2616.000000	98.980028 
2615.000000	98.983975 
2614.000000	98.985478 
2613.000000	98.982451 
2612.000000	98.975455 
2611.000000	98.968499 
2610.000000	98.966966 
2609.000000	98.973914 
2608.000000	98.987110 
2607.000000	98.999336 
2606.000000	99.003065 
2605.000000	98.996678 
2604.000000	98.986254 
2603.000000	98.979959 
2602.000000	98.980164 
2601.000000	98.981749 
2600.000000	98.978173 
2599.000000	98.968025 
2598.000000	98.955390 
2597.000000	98.945772 
2596.000000	98.943117 
2595.000000	98.949059 
2594.000000	98.961988 
2593.000000	98.976371 
2592.000000	98.985244 
2591.000000	98.984762 
2590.000000	98.975946 
2589.000000	98.962563 
2588.000000	98.949451 
2587.000000	98.942765 
2586.000000	98.947817 
2585.000000	98.963153 
2584.000000	98.978232 
2583.000000	98.981105 
2582.000000	98.969876 
2581.000000	98.955252 
2580.000000	98.951158 
2579.000000	98.963201 
2578.000000	98.984964 
2577.000000	99.003017 
2576.000000	99.005961 
2575.000000	98.992163 
2574.000000	98.970821 
2573.000000	98.954228 
2572.000000	98.947891 
2571.000000	98.949243 
2570.000000	98.955372 
2569.000000	98.967515 
2568.000000	98.985055 
2567.000000	98.999089 
2566.000000	98.998568 
2565.000000	98.983723 
2564.000000	98.968670 
2563.000000	98.967962 
2562.000000	98.982680 
2561.000000	99.001194 
2560.000000	99.010865 
2559.000000	99.006819 
2558.000000	98.991966 
2557.000000	98.972793 
2556.000000	98.955383 
2555.000000	98.942633 
2554.000000	98.934255 
2553.000000	98.930352 
2552.000000	98.934131 
2551.000000	98.948497 
2550.000000	98.969814 
2549.000000	98.988016 
2548.000000	98.994736 
2547.000000	98.990047 
2546.000000	98.980194 
2545.000000	98.970629 
2544.000000	98.962939 
2543.000000	98.956679 
2542.000000	98.951213 
2541.000000	98.946087 
2540.000000	98.942354 
2539.000000	98.944027 
2538.000000	98.955609 
2537.000000	98.976283 
2536.000000	98.997784 
2535.000000	99.010348 
2534.000000	99.011481 
2533.000000	99.008047 
2532.000000	99.008931 
2531.000000	99.015550 
2530.000000	99.020244 
2529.000000	99.014908 
2528.000000	99.000977 
2527.000000	98.989136 
2526.000000	98.988086 
2525.000000	98.995012 
2524.000000	98.999254 
2523.000000	98.994862 
2522.000000	98.986897 
2521.000000	98.984619 
2520.000000	98.990868 
2519.000000	99.000072 
2518.000000	99.005631 
2517.000000	99.007200 
2516.000000	99.010301 
2515.000000	99.019455 
2514.000000	99.031937 
2513.000000	99.038495 
2512.000000	99.031000 
2511.000000	99.009953 
2510.000000	98.984437 
2509.000000	98.965291 
2508.000000	98.959013 
2507.000000	98.966499 
2506.000000	98.983695 
2505.000000	99.002101 
2504.000000	99.012373 
2503.000000	99.011494 
2502.000000	99.005725 
2501.000000	99.003731 
2500.000000	99.007142 
2499.000000	99.010281 
2498.000000	99.008591 
2497.000000	99.003988 
2496.000000	99.001445 
2495.000000	99.003551 
2494.000000	99.009723 
2493.000000	99.017706 
2492.000000	99.023593 
2491.000000	99.022987 
2490.000000	99.015691 
2489.000000	99.008479 
2488.000000	99.010078 
2487.000000	99.022896 
2486.000000	99.041285 
2485.000000	99.057359 
2484.000000	99.066003 
2483.000000	99.064581 
2482.000000	99.052286 
2481.000000	99.033078 
2480.000000	99.017079 
2479.000000	99.014390 
2478.000000	99.025882 
2477.000000	99.041672 
2476.000000	99.049818 
2475.000000	99.045736 
2474.000000	99.032933 
2473.000000	99.017061 
2472.000000	99.001981 
2471.000000	98.991168 
2470.000000	98.989480 
2469.000000	99.000451 
2468.000000	99.021482 
2467.000000	99.042928 
2466.000000	99.052823 
2465.000000	99.043533 
2464.000000	99.015917 
2463.000000	98.979300 
2462.000000	98.947439 
2461.000000	98.931623 
2460.000000	98.934271 
2459.000000	98.948025 
2458.000000	98.962055 
2457.000000	98.970678 
2456.000000	98.976953 
2455.000000	98.988601 
2454.000000	99.010129 
2453.000000	99.037417 
2452.000000	99.058855 
2451.000000	99.063067 
2450.000000	99.048223 
2449.000000	99.024770 
2448.000000	99.007365 
2447.000000	99.002477 
2446.000000	99.004208 
2445.000000	99.002530 
2444.000000	98.994338 
2443.000000	98.985537 
2442.000000	98.983922 
2441.000000	98.992035 
2440.000000	99.005990 
2439.000000	99.018620 
2438.000000	99.023680 
2437.000000	99.019570 
2436.000000	99.010260 
2435.000000	99.001356 
2434.000000	98.994875 
2433.000000	98.989340 
2432.000000	98.984935 
2431.000000	98.985787 
2430.000000	98.995466 
2429.000000	99.012057 
2428.000000	99.029568 
2427.000000	99.043002 
2426.000000	99.050382 
2425.000000	99.051194 
2424.000000	99.045442 
2423.000000	99.034179 
2422.000000	99.019426 
2421.000000	99.003695 
2420.000000	98.990571 
2419.000000	98.984659 
2418.000000	98.988630 
2417.000000	98.999867 
2416.000000	99.011327 
2415.000000	99.016741 
2414.000000	99.015693 
2413.000000	99.014881 
2412.000000	99.023933 
2411.000000	99.046616 
2410.000000	99.073973 
2409.000000	99.089293 
2408.000000	99.084302 
2407.000000	99.069262 
2406.000000	99.062542 
2405.000000	99.070209 
2404.000000	99.080509 
2403.000000	99.079348 
2402.000000	99.066369 
2401.000000	99.053130 
2400.000000	99.049262 
2399.000000	99.054488 
2398.000000	99.062443 
2397.000000	99.067962 
2396.000000	99.069990 
2395.000000	99.070150 
2394.000000	99.070235 
2393.000000	99.070914 
2392.000000	99.072216 
2391.000000	99.074456 
2390.000000	99.077545 
2389.000000	99.079286 
2388.000000	99.075843 
2387.000000	99.064817 
2386.000000	99.047436 
2385.000000	99.027854 
2384.000000	99.011707 
2383.000000	99.005278 
2382.000000	99.013054 
2381.000000	99.033211 
2380.000000	99.055781 
2379.000000	99.067952 
2378.000000	99.062253 
2377.000000	99.040033 
2376.000000	99.010088 
2375.000000	98.985237 
2374.000000	98.978124 
2373.000000	98.993324 
2372.000000	99.021224 
2371.000000	99.043803 
2370.000000	99.049465 
2369.000000	99.040994 
2368.000000	99.029687 
2367.000000	99.023955 
2366.000000	99.022159 
2365.000000	99.014329 
2364.000000	98.999204 
2363.000000	98.993094 
2362.000000	99.006954 
2361.000000	99.029022 
2360.000000	99.034594 
2359.000000	99.017360 
2358.000000	99.001244 
2357.000000	98.999349 
2356.000000	99.000262 
2355.000000	98.994316 
2354.000000	98.993234 
2353.000000	99.006374 
2352.000000	99.013078 
2351.000000	98.999432 
2350.000000	98.980949 
2349.000000	98.983221 
2348.000000	99.008447 
2347.000000	99.023935 
2346.000000	99.009380 
2345.000000	98.976766 
2344.000000	98.956680 
2343.000000	98.959854 
2342.000000	98.977510 
2341.000000	99.006006 
2340.000000	99.033161 
2339.000000	99.042754 
2338.000000	99.023325 
2337.000000	98.984165 
2336.000000	98.943811 
2335.000000	98.919324 
2334.000000	98.914691 
2333.000000	98.926975 
2332.000000	98.940471 
2331.000000	98.946907 
2330.000000	98.944334 
2329.000000	98.938991 
2328.000000	98.939095 
2327.000000	98.942668 
2326.000000	98.951218 
2325.000000	98.959795 
2324.000000	98.966420 
2323.000000	98.967951 
2322.000000	98.964041 
2321.000000	98.961420 
2320.000000	98.960724 
2319.000000	98.960045 
2318.000000	98.952925 
2317.000000	98.944741 
2316.000000	98.945254 
2315.000000	98.964852 
2314.000000	99.001507 
2313.000000	99.041139 
2312.000000	99.062236 
2311.000000	99.051925 
2310.000000	99.017926 
2309.000000	98.982382 
2308.000000	98.961823 
2307.000000	98.952438 
2306.000000	98.940613 
2305.000000	98.921899 
2304.000000	98.905716 
2303.000000	98.902246 
2302.000000	98.910375 
2301.000000	98.922054 
2300.000000	98.931252 
2299.000000	98.937419 
2298.000000	98.943259 
2297.000000	98.953025 
2296.000000	98.970312 
2295.000000	98.991069 
2294.000000	99.004557 
2293.000000	99.002458 
2292.000000	98.990237 
2291.000000	98.980764 
2290.000000	98.980960 
2289.000000	98.985490 
2288.000000	98.985876 
2287.000000	98.979182 
2286.000000	98.969258 
2285.000000	98.963773 
2284.000000	98.971474 
2283.000000	98.995593 
2282.000000	99.026236 
2281.000000	99.044765 
2280.000000	99.040787 
2279.000000	99.023082 
2278.000000	99.008636 
2277.000000	99.005228 
2276.000000	99.008292 
2275.000000	99.011915 
2274.000000	99.014265 
2273.000000	99.013421 
2272.000000	99.006593 
2271.000000	98.995851 
2270.000000	98.988971 
2269.000000	98.990991 
2268.000000	98.999329 
2267.000000	99.009666 
2266.000000	99.021526 
2265.000000	99.034171 
2264.000000	99.041505 
2263.000000	99.036623 
2262.000000	99.021092 
2261.000000	99.004140 
2260.000000	98.992555 
2259.000000	98.984157 
2258.000000	98.972871 
2257.000000	98.959236 
2256.000000	98.953250 
2255.000000	98.965626 
2254.000000	98.994189 
2253.000000	99.021029 
2252.000000	99.026706 
2251.000000	99.009092 
2250.000000	98.985979 
2249.000000	98.977074 
2248.000000	98.985251 
2247.000000	98.997352 
2246.000000	99.001528 
2245.000000	98.999447 
2244.000000	99.000726 
2243.000000	99.009107 
2242.000000	99.018573 
2241.000000	99.022491 
2240.000000	99.021747 
2239.000000	99.020205 
2238.000000	99.015476 
2237.000000	99.001313 
2236.000000	98.980208 
2235.000000	98.966365 
2234.000000	98.970982 
2233.000000	98.988740 
2232.000000	99.004189 
2231.000000	99.007649 
2230.000000	98.998150 
2229.000000	98.975607 
2228.000000	98.941898 
2227.000000	98.909965 
2226.000000	98.899146 
2225.000000	98.914351 
2224.000000	98.936992 
2223.000000	98.944472 
2222.000000	98.935666 
2221.000000	98.932167 
2220.000000	98.956924 
2219.000000	99.014457 
2218.000000	99.086752 
2217.000000	99.142883 
2216.000000	99.156966 
2215.000000	99.124356 
2214.000000	99.063317 
2213.000000	99.001782 
2212.000000	98.962531 
2211.000000	98.956508 
2210.000000	98.981174 
2209.000000	99.021040 
2208.000000	99.055651 
2207.000000	99.071590 
2206.000000	99.064321 
2205.000000	99.031530 
2204.000000	98.976193 
2203.000000	98.918348 
2202.000000	98.889387 
2201.000000	98.903113 
2200.000000	98.940236 
2199.000000	98.972566 
2198.000000	98.993893 
2197.000000	99.012796 
2196.000000	99.023197 
2195.000000	99.004613 
2194.000000	98.956637 
2193.000000	98.915895 
2192.000000	98.925305 
2191.000000	98.991226 
2190.000000	99.077559 
2189.000000	99.138106 
2188.000000	99.151465 
2187.000000	99.128435 
2186.000000	99.092649 
2185.000000	99.059200 
2184.000000	99.032470 
2183.000000	99.018486 
2182.000000	99.026670 
2181.000000	99.052891 
2180.000000	99.072217 
2179.000000	99.062707 
2178.000000	99.032726 
2177.000000	99.013484 
2176.000000	99.025443 
2175.000000	99.062019 
2174.000000	99.105317 
2173.000000	99.143634 
2172.000000	99.169801 
2171.000000	99.175348 
2170.000000	99.155277 
2169.000000	99.113755 
2168.000000	99.059349 
2167.000000	98.997803 
2166.000000	98.933614 
2165.000000	98.875905 
2164.000000	98.840082 
2163.000000	98.845054 
2162.000000	98.903725 
2161.000000	99.005080 
2160.000000	99.109130 
2159.000000	99.178834 
2158.000000	99.216403 
2157.000000	99.245168 
2156.000000	99.262451 
2155.000000	99.242245 
2154.000000	99.184604 
2153.000000	99.133519 
2152.000000	99.130259 
2151.000000	99.163562 
2150.000000	99.183885 
2149.000000	99.160657 
2148.000000	99.110613 
2147.000000	99.071608 
2146.000000	99.064055 
2145.000000	99.080939 
2144.000000	99.102898 
2143.000000	99.116561 
2142.000000	99.123795 
2141.000000	99.137945 
2140.000000	99.167771 
2139.000000	99.202644 
2138.000000	99.217589 
2137.000000	99.197385 
2136.000000	99.154905 
2135.000000	99.122060 
2134.000000	99.121631 
2133.000000	99.147927 
2132.000000	99.173823 
2131.000000	99.175785 
2130.000000	99.153013 
2129.000000	99.125068 
2128.000000	99.112540 
2127.000000	99.119983 
2126.000000	99.135479 
2125.000000	99.142685 
2124.000000	99.132608 
2123.000000	99.108615 
2122.000000	99.084808 
2121.000000	99.077254 
2120.000000	99.090054 
2119.000000	99.108443 
2118.000000	99.110146 
2117.000000	99.086690 
2116.000000	99.051942 
2115.000000	99.028767 
2114.000000	99.030671 
2113.000000	99.057406 
2112.000000	99.101858 
2111.000000	99.153332 
2110.000000	99.194737 
2109.000000	99.206455 
2108.000000	99.181410 
2107.000000	99.135367 
2106.000000	99.097208 
2105.000000	99.086383 
2104.000000	99.099776 
2103.000000	99.120442 
2102.000000	99.136416 
2101.000000	99.147692 
2100.000000	99.155830 
2099.000000	99.153458 
2098.000000	99.131502 
2097.000000	99.096327 
2096.000000	99.069826 
2095.000000	99.065712 
2094.000000	99.072266 
2093.000000	99.068607 
2092.000000	99.055159 
2091.000000	99.055405 
2090.000000	99.084159 
2089.000000	99.124572 
2088.000000	99.145583 
2087.000000	99.136318 
2086.000000	99.112348 
2085.000000	99.091351 
2084.000000	99.075261 
2083.000000	99.059197 
2082.000000	99.046427 
2081.000000	99.044909 
2080.000000	99.053722 
2079.000000	99.062096 
2078.000000	99.062319 
2077.000000	99.058101 
2076.000000	99.058887 
2075.000000	99.069105 
2074.000000	99.084131 
2073.000000	99.094544 
2072.000000	99.093163 
2071.000000	99.079459 
2070.000000	99.060124 
2069.000000	99.047777 
2068.000000	99.057083 
2067.000000	99.095047 
2066.000000	99.148410 
2065.000000	99.183334 
2064.000000	99.169557 
2063.000000	99.110604 
2062.000000	99.045219 
2061.000000	99.015057 
2060.000000	99.030788 
2059.000000	99.068915 
2058.000000	99.096813 
2057.000000	99.097649 
2056.000000	99.076219 
2055.000000	99.047921 
2054.000000	99.023896 
2053.000000	99.005438 
2052.000000	98.991893 
2051.000000	98.990761 
2050.000000	99.013269 
2049.000000	99.056949 
2048.000000	99.101194 
2047.000000	99.128804 
2046.000000	99.143463 
2045.000000	99.155343 
2044.000000	99.157806 
2043.000000	99.133970 
2042.000000	99.086589 
2041.000000	99.046109 
2040.000000	99.039331 
2039.000000	99.059350 
2038.000000	99.077825 
2037.000000	99.082289 
2036.000000	99.088783 
2035.000000	99.112897 
2034.000000	99.139308 
2033.000000	99.137408 
2032.000000	99.108513 
2031.000000	99.096552 
2030.000000	99.136737 
2029.000000	99.204934 
2028.000000	99.240522 
2027.000000	99.219576 
2026.000000	99.179985 
2025.000000	99.165870 
2024.000000	99.171056 
2023.000000	99.157969 
2022.000000	99.116318 
2021.000000	99.074200 
2020.000000	99.055475 
2019.000000	99.054856 
2018.000000	99.060768 
2017.000000	99.076682 
2016.000000	99.105114 
2015.000000	99.129126 
2014.000000	99.128244 
2013.000000	99.104355 
2012.000000	99.077780 
2011.000000	99.062700 
2010.000000	99.060113 
2009.000000	99.071584 
2008.000000	99.102471 
2007.000000	99.145800 
2006.000000	99.175101 
2005.000000	99.165398 
2004.000000	99.119423 
2003.000000	99.065903 
2002.000000	99.033937 
2001.000000	99.032114 
2000.000000	99.049227 
1999.000000	99.069778 
1998.000000	99.084496 
1997.000000	99.088626 
1996.000000	99.077959 
1995.000000	99.050651 
1994.000000	99.012921 
1993.000000	98.982069 
1992.000000	98.980068 
1991.000000	99.018303 
1990.000000	99.085000 
1989.000000	99.147135 
1988.000000	99.169406 
1987.000000	99.138968 
1986.000000	99.074710 
1985.000000	99.011966 
1984.000000	98.977722 
1983.000000	98.978109 
1982.000000	99.003540 
1981.000000	99.039967 
1980.000000	99.076164 
1979.000000	99.105170 
1978.000000	99.123423 
1977.000000	99.133365 
1976.000000	99.146723 
1975.000000	99.177427 
1974.000000	99.225171 
1973.000000	99.269469 
1972.000000	99.287353 
1971.000000	99.275288 
1970.000000	99.245945 
1969.000000	99.207167 
1968.000000	99.157355 
1967.000000	99.104848 
1966.000000	99.076626 
1965.000000	99.092117 
1964.000000	99.135276 
1963.000000	99.167357 
1962.000000	99.166758 
1961.000000	99.148040 
1960.000000	99.138179 
1959.000000	99.141782 
1958.000000	99.139743 
1957.000000	99.118488 
1956.000000	99.089843 
1955.000000	99.078329 
1954.000000	99.093661 
1953.000000	99.121526 
1952.000000	99.141159 
1951.000000	99.146160 
1950.000000	99.144482 
1949.000000	99.142571 
1948.000000	99.137107 
1947.000000	99.122957 
1946.000000	99.102552 
1945.000000	99.083989 
1944.000000	99.073425 
1943.000000	99.072251 
1942.000000	99.079371 
1941.000000	99.094257 
1940.000000	99.118449 
1939.000000	99.152061 
1938.000000	99.186461 
1937.000000	99.205155 
1936.000000	99.199344 
1935.000000	99.180350 
1934.000000	99.168997 
1933.000000	99.173295 
1932.000000	99.182771 
1931.000000	99.183991 
1930.000000	99.171938 
1929.000000	99.145245 
1928.000000	99.105381 
1927.000000	99.066688 
1926.000000	99.053021 
1925.000000	99.072244 
1924.000000	99.101593 
1923.000000	99.112905 
1922.000000	99.107518 
1921.000000	99.108038 
1920.000000	99.121973 
1919.000000	99.133424 
1918.000000	99.129374 
1917.000000	99.117687 
1916.000000	99.111891 
1915.000000	99.114028 
1914.000000	99.120174 
1913.000000	99.127488 
1912.000000	99.129100 
1911.000000	99.113915 
1910.000000	99.082004 
1909.000000	99.053142 
1908.000000	99.048491 
1907.000000	99.067360 
1906.000000	99.089674 
1905.000000	99.096820 
1904.000000	99.086293 
1903.000000	99.071750 
1902.000000	99.072039 
1901.000000	99.095039 
1900.000000	99.128434 
1899.000000	99.149393 
1898.000000	99.145821 
1897.000000	99.126526 
1896.000000	99.109459 
1895.000000	99.103990 
1894.000000	99.106998 
1893.000000	99.110811 
1892.000000	99.110901 
1891.000000	99.109886 
1890.000000	99.118416 
1889.000000	99.146089 
1888.000000	99.186955 
1887.000000	99.221656 
1886.000000	99.235325 
1885.000000	99.229547 
1884.000000	99.216739 
1883.000000	99.205180 
1882.000000	99.193941 
1881.000000	99.180438 
1880.000000	99.166415 
1879.000000	99.154884 
1878.000000	99.145503 
1877.000000	99.135981 
1876.000000	99.126100 
1875.000000	99.119477 
1874.000000	99.121824 
1873.000000	99.134506 
1872.000000	99.149196 
1871.000000	99.153406 
1870.000000	99.145609 
1869.000000	99.141534 
1868.000000	99.153303 
1867.000000	99.168735 
1866.000000	99.166795 
1865.000000	99.145160 
1864.000000	99.122873 
1863.000000	99.118380 
1862.000000	99.130836 
1861.000000	99.146213 
1860.000000	99.156489 
1859.000000	99.165733 
1858.000000	99.178365 
1857.000000	99.189471 
1856.000000	99.190753 
1855.000000	99.181534 
1854.000000	99.168702 
1853.000000	99.157248 
1852.000000	99.145869 
1851.000000	99.131933 
1850.000000	99.117212 
1849.000000	99.107635 
1848.000000	99.107120 
1847.000000	99.113679 
1846.000000	99.122614 
1845.000000	99.131698 
1844.000000	99.140117 
1843.000000	99.143611 
1842.000000	99.136554 
1841.000000	99.119260 
1840.000000	99.101172 
1839.000000	99.094896 
1838.000000	99.105362 
1837.000000	99.126082 
1836.000000	99.147166 
1835.000000	99.163999 
1834.000000	99.176321 
1833.000000	99.184245 
1832.000000	99.188210 
1831.000000	99.188296 
1830.000000	99.181973 
1829.000000	99.167039 
1828.000000	99.147340 
1827.000000	99.131514 
1826.000000	99.126998 
1825.000000	99.135140 
1824.000000	99.149204 
1823.000000	99.160183 
1822.000000	99.164862 
1821.000000	99.165952 
1820.000000	99.167093 
1819.000000	99.168156 
1818.000000	99.166056 
1817.000000	99.159395 
1816.000000	99.149727 
1815.000000	99.139771 
1814.000000	99.131635 
1813.000000	99.127038 
1812.000000	99.126969 
1811.000000	99.129493 
1810.000000	99.131594 
1809.000000	99.132822 
1808.000000	99.135251 
1807.000000	99.141295 
1806.000000	99.150485 
1805.000000	99.157516 
1804.000000	99.156256 
1803.000000	99.146950 
1802.000000	99.136252 
1801.000000	99.128715 
1800.000000	99.120726 
1799.000000	99.107669 
1798.000000	99.094714 
1797.000000	99.092594 
1796.000000	99.105755 
1795.000000	99.129152 
1794.000000	99.151886 
1793.000000	99.161821 
1792.000000	99.153163 
1791.000000	99.133980 
1790.000000	99.119757 
1789.000000	99.116971 
1788.000000	99.119266 
1787.000000	99.117432 
1786.000000	99.108975 
1785.000000	99.097388 
1784.000000	99.085256 
1783.000000	99.074425 
1782.000000	99.069590 
1781.000000	99.075942 
1780.000000	99.091749 
1779.000000	99.107197 
1778.000000	99.114404 
1777.000000	99.112759 
1776.000000	99.106080 
1775.000000	99.099291 
1774.000000	99.095675 
1773.000000	99.096114 
1772.000000	99.098660 
1771.000000	99.099700 
1770.000000	99.098972 
1769.000000	99.100931 
1768.000000	99.108571 
1767.000000	99.118445 
1766.000000	99.125274 
1765.000000	99.128940 
1764.000000	99.132438 
1763.000000	99.136041 
1762.000000	99.136762 
1761.000000	99.133881 
1760.000000	99.129693 
1759.000000	99.123748 
1758.000000	99.112774 
1757.000000	99.096685 
1756.000000	99.082434 
1755.000000	99.076640 
1754.000000	99.079338 
1753.000000	99.087942 
1752.000000	99.100224 
1751.000000	99.110311 
1750.000000	99.109586 
1749.000000	99.097883 
1748.000000	99.085322 
1747.000000	99.079466 
1746.000000	99.077167 
1745.000000	99.073267 
1744.000000	99.069823 
1743.000000	99.070491 
1742.000000	99.072935 
1741.000000	99.073745 
1740.000000	99.076040 
1739.000000	99.084826 
1738.000000	99.096451 
1737.000000	99.102337 
1736.000000	99.096958 
1735.000000	99.081942 
1734.000000	99.065625 
1733.000000	99.055236 
1732.000000	99.053441 
1731.000000	99.060167 
1730.000000	99.072125 
1729.000000	99.082280 
1728.000000	99.087238 
1727.000000	99.090399 
1726.000000	99.094865 
1725.000000	99.097759 
1724.000000	99.095540 
1723.000000	99.091426 
1722.000000	99.093579 
1721.000000	99.104241 
1720.000000	99.116184 
1719.000000	99.119838 
1718.000000	99.115441 
1717.000000	99.114458 
1716.000000	99.120868 
1715.000000	99.128220 
1714.000000	99.134087 
1713.000000	99.139354 
1712.000000	99.142573 
1711.000000	99.142483 
1710.000000	99.140484 
1709.000000	99.138166 
1708.000000	99.135841 
1707.000000	99.135181 
1706.000000	99.141457 
1705.000000	99.156107 
1704.000000	99.165959 
1703.000000	99.156395 
1702.000000	99.123566 
1701.000000	99.087326 
1700.000000	99.080282 
1699.000000	99.098869 
1698.000000	99.118062 
1697.000000	99.128118 
1696.000000	99.130676 
1695.000000	99.133158 
1694.000000	99.141183 
1693.000000	99.149957 
1692.000000	99.148924 
1691.000000	99.133612 
1690.000000	99.113608 
1689.000000	99.103725 
1688.000000	99.107892 
1687.000000	99.119193 
1686.000000	99.130632 
1685.000000	99.140052 
1684.000000	99.143316 
1683.000000	99.138298 
1682.000000	99.131014 
1681.000000	99.127444 
1680.000000	99.131428 
1679.000000	99.139789 
1678.000000	99.143945 
1677.000000	99.137371 
1676.000000	99.123417 
1675.000000	99.112946 
1674.000000	99.110277 
1673.000000	99.111334 
1672.000000	99.113699 
1671.000000	99.117631 
1670.000000	99.121802 
1669.000000	99.121920 
1668.000000	99.119115 
1667.000000	99.120362 
1666.000000	99.127441 
1665.000000	99.135265 
1664.000000	99.136889 
1663.000000	99.131072 
1662.000000	99.124944 
1661.000000	99.125002 
1660.000000	99.132263 
1659.000000	99.143481 
1658.000000	99.154169 
1657.000000	99.159131 
1656.000000	99.158600 
1655.000000	99.156513 
1654.000000	99.160409 
1653.000000	99.167836 
1652.000000	99.170015 
1651.000000	99.170393 
1650.000000	99.170948 
1649.000000	99.171015 
1648.000000	99.169158 
1647.000000	99.165618 
1646.000000	99.159587 
1645.000000	99.152482 
1644.000000	99.145118 
1643.000000	99.138286 
1642.000000	99.134175 
1641.000000	99.134515 
1640.000000	99.136437 
1639.000000	99.134352 
1638.000000	99.125863 
1637.000000	99.113485 
1636.000000	99.101446 
1635.000000	99.093521 
1634.000000	99.092456 
1633.000000	99.099398 
1632.000000	99.112185 
1631.000000	99.125981 
1630.000000	99.136581 
1629.000000	99.142979 
1628.000000	99.147861 
1627.000000	99.153440 
1626.000000	99.157806 
1625.000000	99.157398 
1624.000000	99.152035 
1623.000000	99.145979 
1622.000000	99.142673 
1621.000000	99.140709 
1620.000000	99.138422 
1619.000000	99.136073 
1618.000000	99.134790 
1617.000000	99.135451 
1616.000000	99.139331 
1615.000000	99.147479 
1614.000000	99.154681 
1613.000000	99.152982 
1612.000000	99.141534 
1611.000000	99.129172 
1610.000000	99.124963 
1609.000000	99.128404 
1608.000000	99.134208 
1607.000000	99.141179 
1606.000000	99.149421 
1605.000000	99.155236 
1604.000000	99.154834 
1603.000000	99.148996 
1602.000000	99.142312 
1601.000000	99.139620 
1600.000000	99.143323 
1599.000000	99.151222 
1598.000000	99.156507 
1597.000000	99.154097 
1596.000000	99.146833 
1595.000000	99.142281 
1594.000000	99.143440 
1593.000000	99.146348 
1592.000000	99.147771 
1591.000000	99.149708 
1590.000000	99.154068 
1589.000000	99.157772 
1588.000000	99.156779 
1587.000000	99.151467 
1586.000000	99.145073 
1585.000000	99.140069 
1584.000000	99.139262 
1583.000000	99.145151 
1582.000000	99.154397 
1581.000000	99.159466 
1580.000000	99.158442 
1579.000000	99.156435 
1578.000000	99.155866 
1577.000000	99.151828 
1576.000000	99.143264 
1575.000000	99.142481 
1574.000000	99.155254 
1573.000000	99.170190 
1572.000000	99.175824 
1571.000000	99.171361 
1570.000000	99.166026 
1569.000000	99.165846 
1568.000000	99.168847 
1567.000000	99.171907 
1566.000000	99.173472 
1565.000000	99.173158 
1564.000000	99.176124 
1563.000000	99.188780 
1562.000000	99.214769 
1561.000000	99.248904 
1560.000000	99.278895 
1559.000000	99.285511 
1558.000000	99.267093 
1557.000000	99.245272 
1556.000000	99.227098 
1555.000000	99.210922 
1554.000000	99.192790 
1553.000000	99.175329 
1552.000000	99.162973 
1551.000000	99.158571 
1550.000000	99.161335 
1549.000000	99.169362 
1548.000000	99.181281 
1547.000000	99.196832 
1546.000000	99.212991 
1545.000000	99.224436 
1544.000000	99.229002 
1543.000000	99.228368 
1542.000000	99.222819 
1541.000000	99.208485 
1540.000000	99.183931 
1539.000000	99.166441 
1538.000000	99.172090 
1537.000000	99.191133 
1536.000000	99.207661 
1535.000000	99.213692 
1534.000000	99.211162 
1533.000000	99.208343 
1532.000000	99.209895 
1531.000000	99.213105 
1530.000000	99.215477 
1529.000000	99.215930 
1528.000000	99.213038 
1527.000000	99.207481 
1526.000000	99.203268 
1525.000000	99.204640 
1524.000000	99.211835 
1523.000000	99.220976 
1522.000000	99.227423 
1521.000000	99.228872 
1520.000000	99.227275 
1519.000000	99.225934 
1518.000000	99.226173 
1517.000000	99.230091 
1516.000000	99.238632 
1515.000000	99.246773 
1514.000000	99.246412 
1513.000000	99.234384 
1512.000000	99.217202 
1511.000000	99.205704 
1510.000000	99.204576 
1509.000000	99.208816 
1508.000000	99.211825 
1507.000000	99.209444 
1506.000000	99.204018 
1505.000000	99.201736 
1504.000000	99.200521 
1503.000000	99.196522 
1502.000000	99.190671 
1501.000000	99.188475 
1500.000000	99.194800 
1499.000000	99.209657 
1498.000000	99.227020 
1497.000000	99.240519 
1496.000000	99.246903 
1495.000000	99.247504 
1494.000000	99.246518 
1493.000000	99.244788 
1492.000000	99.238663 
1491.000000	99.226160 
1490.000000	99.212477 
1489.000000	99.205510 
1488.000000	99.205201 
1487.000000	99.206931 
1486.000000	99.210291 
1485.000000	99.212649 
1484.000000	99.208896 
1483.000000	99.200361 
1482.000000	99.195564 
1481.000000	99.199767 
1480.000000	99.205326 
1479.000000	99.200594 
1478.000000	99.184347 
1477.000000	99.167023 
1476.000000	99.158582 
1475.000000	99.160331 
1474.000000	99.169744 
1473.000000	99.182686 
1472.000000	99.190058 
1471.000000	99.185158 
1470.000000	99.174327 
1469.000000	99.169479 
1468.000000	99.175308 
1467.000000	99.186970 
1466.000000	99.197452 
1465.000000	99.204414 
1464.000000	99.208449 
1463.000000	99.207989 
1462.000000	99.202451 
1461.000000	99.196437 
1460.000000	99.196971 
1459.000000	99.207172 
1458.000000	99.219207 
1457.000000	99.219496 
1456.000000	99.208548 
1455.000000	99.198719 
1454.000000	99.194507 
1453.000000	99.193452 
1452.000000	99.191012 
1451.000000	99.184667 
1450.000000	99.177291 
1449.000000	99.176848 
1448.000000	99.186638 
1447.000000	99.198615 
1446.000000	99.202155 
1445.000000	99.196284 
1444.000000	99.188201 
1443.000000	99.183011 
1442.000000	99.180454 
1441.000000	99.178787 
1440.000000	99.178047 
1439.000000	99.177840 
1438.000000	99.175664 
1437.000000	99.171485 
1436.000000	99.169216 
1435.000000	99.169548 
1434.000000	99.169625 
1433.000000	99.168936 
1432.000000	99.168063 
1431.000000	99.167023 
1430.000000	99.166102 
1429.000000	99.168461 
1428.000000	99.176365 
1427.000000	99.185505 
1426.000000	99.187078 
1425.000000	99.176007 
1424.000000	99.159153 
1423.000000	99.147649 
1422.000000	99.144400 
1421.000000	99.146493 
1420.000000	99.154067 
1419.000000	99.167627 
1418.000000	99.180450 
1417.000000	99.186786 
1416.000000	99.187943 
1415.000000	99.185776 
1414.000000	99.179606 
1413.000000	99.170786 
1412.000000	99.165753 
1411.000000	99.170316 
1410.000000	99.181523 
1409.000000	99.190822 
1408.000000	99.192279 
1407.000000	99.186460 
1406.000000	99.178616 
1405.000000	99.173688 
1404.000000	99.172735 
1403.000000	99.171166 
1402.000000	99.163583 
1401.000000	99.150646 
1400.000000	99.140451 
1399.000000	99.142675 
1398.000000	99.158335 
1397.000000	99.179742 
1396.000000	99.197945 
1395.000000	99.206461 
1394.000000	99.202880 
1393.000000	99.191626 
1392.000000	99.181383 
1391.000000	99.176335 
1390.000000	99.173705 
1389.000000	99.168823 
1388.000000	99.161290 
1387.000000	99.156472 
1386.000000	99.159226 
1385.000000	99.167615 
1384.000000	99.175169 
1383.000000	99.176776 
1382.000000	99.173138 
1381.000000	99.170511 
1380.000000	99.174346 
1379.000000	99.184244 
1378.000000	99.194757 
1377.000000	99.200463 
1376.000000	99.199791 
1375.000000	99.195022 
1374.000000	99.189100 
1373.000000	99.182937 
1372.000000	99.176609 
1371.000000	99.172095 
1370.000000	99.172231 
1369.000000	99.176320 
1368.000000	99.179751 
1367.000000	99.178104 
1366.000000	99.172150 
1365.000000	99.167950 
1364.000000	99.170808 
1363.000000	99.178424 
1362.000000	99.181601 
1361.000000	99.174784 
1360.000000	99.163173 
1359.000000	99.156675 
1358.000000	99.159467 
1357.000000	99.167037 
1356.000000	99.172639 
1355.000000	99.174883 
1354.000000	99.177840 
1353.000000	99.184944 
1352.000000	99.193907 
1351.000000	99.199217 
1350.000000	99.197845 
1349.000000	99.190298 
1348.000000	99.179402 
1347.000000	99.168768 
1346.000000	99.162281 
1345.000000	99.162819 
1344.000000	99.169870 
1343.000000	99.178577 
1342.000000	99.182867 
1341.000000	99.180610 
1340.000000	99.175723 
1339.000000	99.173593 
1338.000000	99.174807 
1337.000000	99.176430 
1336.000000	99.177356 
1335.000000	99.178352 
1334.000000	99.178951 
1333.000000	99.178101 
1332.000000	99.177134 
1331.000000	99.178464 
1330.000000	99.180779 
1329.000000	99.179718 
1328.000000	99.174901 
1327.000000	99.172108 
1326.000000	99.175478 
1325.000000	99.181408 
1324.000000	99.184782 
1323.000000	99.186590 
1322.000000	99.190388 
1321.000000	99.194562 
1320.000000	99.194407 
1319.000000	99.190913 
1318.000000	99.191144 
1317.000000	99.198416 
1316.000000	99.206980 
1315.000000	99.208221 
1314.000000	99.199018 
1313.000000	99.183540 
1312.000000	99.169367 
1311.000000	99.162711 
1310.000000	99.165141 
1309.000000	99.173378 
1308.000000	99.182610 
1307.000000	99.190103 
1306.000000	99.194622 
1305.000000	99.193831 
1304.000000	99.186650 
1303.000000	99.177612 
1302.000000	99.174177 
1301.000000	99.177792 
1300.000000	99.181626 
1299.000000	99.179685 
1298.000000	99.174858 
1297.000000	99.174243 
1296.000000	99.178877 
1295.000000	99.182863 
1294.000000	99.181929 
1293.000000	99.178513 
1292.000000	99.177403 
1291.000000	99.179750 
1290.000000	99.183043 
1289.000000	99.184719 
1288.000000	99.183933 
1287.000000	99.181274 
1286.000000	99.178394 
1285.000000	99.176924 
1284.000000	99.176261 
1283.000000	99.173212 
1282.000000	99.165734 
1281.000000	99.156804 
1280.000000	99.152764 
1279.000000	99.157114 
1278.000000	99.166587 
1277.000000	99.174057 
1276.000000	99.174949 
1275.000000	99.170731 
1274.000000	99.166556 
1273.000000	99.165855 
1272.000000	99.167260 
1271.000000	99.166771 
1270.000000	99.162747 
1269.000000	99.158041 
1268.000000	99.156874 
1267.000000	99.160404 
1266.000000	99.166268 
1265.000000	99.171736 
1264.000000	99.175138 
1263.000000	99.174423 
1262.000000	99.168023 
1261.000000	99.159212 
1260.000000	99.156451 
1259.000000	99.165028 
1258.000000	99.178942 
1257.000000	99.185601 
1256.000000	99.179163 
1255.000000	99.166073 
1254.000000	99.156774 
1253.000000	99.155517 
1252.000000	99.160224 
1251.000000	99.168105 
1250.000000	99.176629 
1249.000000	99.180807 
1248.000000	99.175022 
1247.000000	99.159259 
1246.000000	99.141074 
1245.000000	99.130295 
1244.000000	99.132389 
1243.000000	99.145489 
1242.000000	99.161136 
1241.000000	99.168900 
1240.000000	99.164241 
1239.000000	99.153448 
1238.000000	99.148525 
1237.000000	99.155527 
1236.000000	99.169183 
1235.000000	99.179116 
1234.000000	99.179225 
1233.000000	99.170780 
1232.000000	99.159474 
1231.000000	99.151205 
1230.000000	99.148142 
1229.000000	99.146746 
1228.000000	99.141375 
1227.000000	99.131516 
1226.000000	99.123572 
1225.000000	99.123524 
1224.000000	99.129844 
1223.000000	99.135963 
1222.000000	99.137894 
1221.000000	99.136765 
1220.000000	99.135703 
1219.000000	99.137510 
1218.000000	99.143691 
1217.000000	99.151828 
1216.000000	99.154943 
1215.000000	99.148103 
1214.000000	99.135974 
1213.000000	99.129405 
1212.000000	99.133454 
1211.000000	99.142557 
1210.000000	99.148397 
1209.000000	99.147911 
1208.000000	99.141697 
1207.000000	99.130041 
1206.000000	99.115002 
1205.000000	99.102889 
1204.000000	99.099563 
1203.000000	99.104188 
1202.000000	99.110595 
1201.000000	99.113323 
1200.000000	99.109585 
1199.000000	99.098080 
1198.000000	99.080761 
1197.000000	99.064820 
1196.000000	99.058069 
1195.000000	99.061485 
1194.000000	99.069173 
1193.000000	99.075601 
1192.000000	99.079838 
1191.000000	99.083240 
1190.000000	99.086979 
1189.000000	99.092081 
1188.000000	99.098028 
1187.000000	99.100889 
1186.000000	99.097070 
1185.000000	99.089851 
1184.000000	99.087445 
1183.000000	99.092277 
1182.000000	99.096104 
1181.000000	99.088692 
1180.000000	99.068444 
1179.000000	99.041955 
1178.000000	99.016413 
1177.000000	98.996185 
1176.000000	98.984153 
1175.000000	98.981120 
1174.000000	98.984099 
1173.000000	98.989238 
1172.000000	98.996674 
1171.000000	99.008957 
1170.000000	99.023992 
1169.000000	99.032954 
1168.000000	99.027681 
1167.000000	99.009601 
1166.000000	98.990144 
1165.000000	98.981502 
1164.000000	98.986147 
1163.000000	98.995055 
1162.000000	98.996864 
1161.000000	98.988471 
1160.000000	98.974872 
1159.000000	98.959597 
1158.000000	98.940183 
1157.000000	98.915544 
1156.000000	98.893133 
1155.000000	98.883099 
1154.000000	98.886586 
1153.000000	98.894812 
1152.000000	98.899110 
1151.000000	98.896764 
1150.000000	98.887399 
1149.000000	98.870338 
1148.000000	98.848432 
1147.000000	98.829283 
1146.000000	98.817556 
1145.000000	98.808566 
1144.000000	98.794528 
1143.000000	98.776634 
1142.000000	98.766121 
1141.000000	98.771474 
1140.000000	98.787208 
1139.000000	98.797871 
1138.000000	98.792789 
1137.000000	98.775016 
1136.000000	98.755508 
1135.000000	98.740906 
1134.000000	98.729344 
1133.000000	98.716921 
1132.000000	98.703880 
1131.000000	98.692209 
1130.000000	98.680236 
1129.000000	98.663556 
1128.000000	98.640840 
1127.000000	98.615906 
1126.000000	98.594152 
1125.000000	98.579189 
1124.000000	98.572409 
1123.000000	98.572640 
1122.000000	98.575471 
1121.000000	98.575383 
1120.000000	98.569769 
1119.000000	98.560204 
1118.000000	98.550476 
1117.000000	98.544725 
1116.000000	98.545846 
1115.000000	98.552269 
1114.000000	98.556200 
1113.000000	98.548256 
1112.000000	98.525226 
1111.000000	98.492668 
1110.000000	98.460626 
1109.000000	98.437976 
1108.000000	98.428614 
1107.000000	98.428745 
1106.000000	98.428379 
1105.000000	98.419161 
1104.000000	98.400578 
1103.000000	98.376525 
1102.000000	98.348342 
1101.000000	98.316854 
1100.000000	98.289239 
1099.000000	98.275344 
1098.000000	98.275733 
1097.000000	98.278474 
1096.000000	98.271761 
1095.000000	98.254938 
1094.000000	98.234828 
1093.000000	98.216350 
1092.000000	98.200794 
1091.000000	98.188824 
1090.000000	98.179629 
1089.000000	98.169123 
1088.000000	98.153670 
1087.000000	98.135094 
1086.000000	98.118825 
1085.000000	98.107277 
1084.000000	98.097119 
1083.000000	98.082787 
1082.000000	98.061762 
1081.000000	98.037020 
1080.000000	98.014261 
1079.000000	97.994858 
1078.000000	97.971678 
1077.000000	97.934992 
1076.000000	97.883412 
1075.000000	97.826510 
1074.000000	97.776422 
1073.000000	97.740090 
1072.000000	97.719211 
1071.000000	97.711333 
1070.000000	97.708125 
1069.000000	97.697773 
1068.000000	97.673323 
1067.000000	97.637194 
1066.000000	97.596845 
1065.000000	97.559190 
1064.000000	97.528869 
1063.000000	97.505131 
1062.000000	97.477627 
1061.000000	97.432411 
1060.000000	97.368165 
1059.000000	97.302588 
1058.000000	97.256905 
1057.000000	97.236377 
1056.000000	97.230070 
1055.000000	97.225136 
1054.000000	97.214817 
1053.000000	97.195302 
1052.000000	97.163770 
1051.000000	97.123600 
1050.000000	97.087143 
1049.000000	97.067745 
1048.000000	97.067799 
1047.000000	97.075279 
1046.000000	97.073277 
1045.000000	97.054919 
1044.000000	97.029196 
1043.000000	97.010696 
1042.000000	97.003788 
1041.000000	96.999890 
1040.000000	96.990256 
1039.000000	96.975871 
1038.000000	96.962234 
1037.000000	96.950032 
1036.000000	96.936439 
1035.000000	96.922144 
1034.000000	96.910459 
1033.000000	96.899708 
1032.000000	96.881671 
1031.000000	96.849629 
1030.000000	96.806221 
1029.000000	96.762622 
1028.000000	96.730456 
1027.000000	96.712710 
1026.000000	96.700429 
1025.000000	96.679948 
1024.000000	96.645774 
1023.000000	96.605209 
1022.000000	96.568591 
1021.000000	96.537235 
1020.000000	96.504413 
1019.000000	96.466997 
1018.000000	96.431885 
1017.000000	96.409472 
1016.000000	96.402097 
1015.000000	96.399245 
1014.000000	96.383925 
1013.000000	96.345724 
1012.000000	96.289609 
1011.000000	96.231175 
1010.000000	96.181416 
1009.000000	96.136978 
1008.000000	96.087202 
1007.000000	96.028704 
1006.000000	95.968841 
1005.000000	95.915658 
1004.000000	95.871339 
1003.000000	95.839425 
1002.000000	95.832107 
1001.000000	95.859730 
1000.000000	95.910915 
999.000000	 95.952517 
998.000000	 95.959034 
997.000000	 95.939030 
996.000000	 95.922773 
995.000000	 95.925614 
994.000000	 95.935156 
993.000000	 95.936012 
992.000000	 95.932630 
991.000000	 95.937586 
990.000000	 95.947127 
989.000000	 95.942140 
988.000000	 95.909543 
987.000000	 95.850122 
986.000000	 95.766772 
985.000000	 95.658740 
984.000000	 95.531664 
983.000000	 95.403014 
982.000000	 95.290782 
981.000000	 95.201754 
980.000000	 95.133950 
979.000000	 95.083747 
978.000000	 95.046591 
977.000000	 95.016964 
976.000000	 94.991967 
975.000000	 94.969960 
974.000000	 94.942826 
973.000000	 94.896707 
972.000000	 94.826760 
971.000000	 94.747811 
970.000000	 94.684346 
969.000000	 94.649533 
968.000000	 94.635310 
967.000000	 94.620673 
966.000000	 94.589625 
965.000000	 94.546255 
964.000000	 94.514637 
963.000000	 94.520286 
962.000000	 94.568732 
961.000000	 94.642600 
960.000000	 94.716550 
959.000000	 94.770517 
958.000000	 94.793898 
957.000000	 94.789132 
956.000000	 94.773421 
955.000000	 94.766587 
954.000000	 94.770829 
953.000000	 94.767996 
952.000000	 94.740499 
951.000000	 94.688272 
950.000000	 94.622009 
949.000000	 94.549008 
948.000000	 94.472694 
947.000000	 94.397872 
946.000000	 94.326608 
945.000000	 94.253567 
944.000000	 94.173816 
943.000000	 94.091062 
942.000000	 94.010498 
941.000000	 93.928800 
940.000000	 93.840908 
939.000000	 93.752632 
938.000000	 93.675494 
937.000000	 93.610709 
936.000000	 93.549046 
935.000000	 93.486446 
934.000000	 93.429160 
933.000000	 93.381764 
932.000000	 93.340244 
931.000000	 93.300840 
930.000000	 93.266969 
929.000000	 93.241122 
928.000000	 93.216084 
927.000000	 93.181952 
926.000000	 93.139640 
925.000000	 93.100395 
924.000000	 93.071303 
923.000000	 93.046673 
922.000000	 93.016226 
921.000000	 92.978417 
920.000000	 92.941699 
919.000000	 92.913618 
918.000000	 92.893077 
917.000000	 92.874722 
916.000000	 92.856889 
915.000000	 92.842028 
914.000000	 92.832290 
913.000000	 92.828870 
912.000000	 92.833251 
911.000000	 92.843274 
910.000000	 92.848776 
909.000000	 92.838372 
908.000000	 92.813212 
907.000000	 92.789120 
906.000000	 92.781690 
905.000000	 92.791494 
904.000000	 92.805270 
903.000000	 92.808398 
902.000000	 92.794578 
901.000000	 92.766677 
900.000000	 92.731826 
899.000000	 92.696104 
898.000000	 92.662816 
897.000000	 92.634219 
896.000000	 92.611796 
895.000000	 92.592577 
894.000000	 92.568499 
893.000000	 92.533839 
892.000000	 92.491183 
891.000000	 92.445527 
890.000000	 92.395267 
889.000000	 92.335862 
888.000000	 92.270897 
887.000000	 92.211052 
886.000000	 92.161156 
885.000000	 92.116298 
884.000000	 92.072540 
883.000000	 92.032653 
882.000000	 91.997157 
881.000000	 91.957850 
880.000000	 91.906857 
879.000000	 91.846893 
878.000000	 91.785844 
877.000000	 91.724165 
876.000000	 91.653683 
875.000000	 91.568562 
874.000000	 91.474631 
873.000000	 91.387096 
872.000000	 91.316828 
871.000000	 91.255682 
870.000000	 91.179217 
869.000000	 91.071889 
868.000000	 90.947484 
867.000000	 90.835302 
866.000000	 90.746489 
865.000000	 90.664979 
864.000000	 90.574063 
863.000000	 90.479509 
862.000000	 90.399438 
861.000000	 90.340418 
860.000000	 90.291664 
859.000000	 90.236870 
858.000000	 90.165753 
857.000000	 90.080287 
856.000000	 89.996394 
855.000000	 89.934400 
854.000000	 89.900635 
853.000000	 89.881877 
852.000000	 89.862641 
851.000000	 89.842254 
850.000000	 89.828862 
849.000000	 89.822812 
848.000000	 89.815666 
847.000000	 89.804236 
846.000000	 89.797218 
845.000000	 89.805745 
844.000000	 89.831414 
843.000000	 89.864916 
842.000000	 89.893860 
841.000000	 89.910562 
840.000000	 89.913038 
839.000000	 89.900939 
838.000000	 89.874252 
837.000000	 89.837352 
836.000000	 89.799972 
835.000000	 89.768295 
834.000000	 89.735511 
833.000000	 89.686710 
832.000000	 89.614318 
831.000000	 89.525555 
830.000000	 89.436098 
829.000000	 89.361604 
828.000000	 89.313948 
827.000000	 89.295414 
826.000000	 89.291691 
825.000000	 89.279257 
824.000000	 89.247204 
823.000000	 89.207814 
822.000000	 89.181560 
821.000000	 89.176516 
820.000000	 89.185062 
819.000000	 89.193964 
818.000000	 89.193993 
817.000000	 89.184348 
816.000000	 89.171917 
815.000000	 89.165740 
814.000000	 89.171260 
813.000000	 89.190096 
812.000000	 89.222384 
811.000000	 89.264357 
810.000000	 89.303772 
809.000000	 89.323564 
808.000000	 89.314771 
807.000000	 89.287612 
806.000000	 89.269049 
805.000000	 89.283761 
804.000000	 89.330492 
803.000000	 89.377861 
802.000000	 89.392561 
801.000000	 89.375323 
800.000000	 89.361298 
799.000000	 89.382320 
798.000000	 89.437961 
797.000000	 89.506848 
796.000000	 89.571831 
795.000000	 89.622679 
794.000000	 89.647460 
793.000000	 89.640870 
792.000000	 89.618997 
791.000000	 89.611203 
790.000000	 89.635383 
789.000000	 89.688315 
788.000000	 89.755723 
787.000000	 89.820270 
786.000000	 89.864537 
785.000000	 89.881872 
784.000000	 89.885703 
783.000000	 89.896660 
782.000000	 89.919364 
781.000000	 89.942800 
780.000000	 89.963959 
779.000000	 89.997479 
778.000000	 90.056326 
777.000000	 90.132039 
776.000000	 90.200000 
775.000000	 90.240179 
774.000000	 90.252196 
773.000000	 90.256179 
772.000000	 90.279364 
771.000000	 90.334639 
770.000000	 90.409531 
769.000000	 90.480292 
768.000000	 90.535980 
767.000000	 90.583870 
766.000000	 90.634908 
765.000000	 90.692413 
764.000000	 90.753787 
763.000000	 90.814248 
762.000000	 90.868048 
761.000000	 90.912899 
760.000000	 90.952614 
759.000000	 90.990052 
758.000000	 91.022317 
757.000000	 91.051413 
756.000000	 91.092512 
755.000000	 91.156212 
754.000000	 91.225448 
753.000000	 91.269109 
752.000000	 91.282567 
751.000000	 91.297157 
750.000000	 91.341363 
749.000000	 91.407972 
748.000000	 91.471695 
747.000000	 91.527109 
746.000000	 91.592132 
745.000000	 91.676868 
744.000000	 91.763990 
743.000000	 91.824625 
742.000000	 91.847230 
741.000000	 91.846876 
740.000000	 91.848526 
739.000000	 91.864423 
738.000000	 91.889386 
737.000000	 91.918193 
736.000000	 91.962017 
735.000000	 92.038118 
734.000000	 92.141524 
733.000000	 92.236637 
732.000000	 92.286019 
731.000000	 92.286564 
730.000000	 92.272624 
729.000000	 92.284536 
728.000000	 92.336860 
727.000000	 92.412424 
726.000000	 92.479994 
725.000000	 92.518332 
724.000000	 92.528614 
723.000000	 92.527982 
722.000000	 92.534920 
721.000000	 92.562643 
720.000000	 92.619129 
719.000000	 92.701806 
718.000000	 92.792800 
717.000000	 92.870132 
716.000000	 92.927310 
715.000000	 92.977390 
714.000000	 93.033756 
713.000000	 93.092627 
712.000000	 93.143865 
711.000000	 93.193673 
710.000000	 93.262093 
709.000000	 93.355847 
708.000000	 93.456383 
707.000000	 93.539983 
706.000000	 93.599484 
705.000000	 93.641201 
704.000000	 93.671285 
703.000000	 93.696005 
702.000000	 93.728540 
701.000000	 93.781048 
700.000000	 93.850461 
699.000000	 93.922466 
698.000000	 93.986273 
697.000000	 94.035173 
696.000000	 94.057138 
695.000000	 94.044174 
694.000000	 94.017201 
693.000000	 94.020621 
692.000000	 94.077248 
691.000000	 94.161228 
690.000000	 94.229329 
689.000000	 94.270595 
688.000000	 94.304412 
687.000000	 94.333412 
686.000000	 94.330179 
685.000000	 94.281430 
684.000000	 94.222069 
683.000000	 94.208031 
682.000000	 94.262504 
681.000000	 94.356283 
680.000000	 94.434373 
679.000000	 94.457821 
678.000000	 94.427518 
677.000000	 94.375634 
676.000000	 94.338090 
675.000000	 94.335655 
674.000000	 94.360807 
673.000000	 94.390053 
672.000000	 94.414163 
671.000000	 94.458621 
670.000000	 94.569179 
669.000000	 94.782602 
668.000000	 95.021757 
667.000000	 95.084899 
666.000000	 94.987333 
665.000000	 94.879322 
664.000000	 94.809639 
663.000000	 94.755209 
662.000000	 94.696387 
661.000000	 94.650242 
660.000000	 94.643562 
659.000000	 94.666987 
658.000000	 94.684420 
657.000000	 94.684701 
656.000000	 94.699889 
655.000000	 94.762816 
654.000000	 94.864099 
653.000000	 94.961634 
652.000000	 95.026607 
651.000000	 95.026808 
650.000000	 94.942785 

