PE IR                   SPECTRUM    ASCII       PEDS        1.60        
  -1
~SP.SP
18/03/14
13:52:40.00
18/03/14
13:52:40.00
pili

650.000000
4









SPECTRUM 100,CPU32 MAIN 00.02.8200 12-DECEMBER-2006 10:00:00
MIR TGS
MIR
OPTKBR
78890
0.200000

4.000000
STRONG
RATIO
SPECTRUM
MAGNITUDE
UNIVERSAL ATR
DOUBLE

COMBINED


0


#HDR
-1
-1
#GR
CM-1
%T
0.00002384185791015625
0.0
4000.000000
-1.000000
3351
8
98.525105
82.490107
#DATA
4000.000000	98.458640 
3999.000000	98.453264 
3998.000000	98.457651 
3997.000000	98.466570 
3996.000000	98.474474 
3995.000000	98.477433 
3994.000000	98.473911 
3993.000000	98.489630 
3992.000000	98.478250 
3991.000000	98.467306 
3990.000000	98.459268 
3989.000000	98.455778 
3988.000000	98.457081 
3987.000000	98.462685 
3986.000000	98.471900 
3985.000000	98.483066 
3984.000000	98.492223 
3983.000000	98.494417 
3982.000000	98.488089 
3981.000000	98.477788 
3980.000000	98.470831 
3979.000000	98.470772 
3978.000000	98.474655 
3977.000000	98.476281 
3976.000000	98.471624 
3975.000000	98.461313 
3974.000000	98.449239 
3973.000000	98.439548 
3972.000000	98.434428 
3971.000000	98.433871 
3970.000000	98.436478 
3969.000000	98.440346 
3968.000000	98.443744 
3967.000000	98.445808 
3966.000000	98.447596 
3965.000000	98.452063 
3964.000000	98.461854 
3963.000000	98.476684 
3962.000000	98.492890 
3961.000000	98.505393 
3960.000000	98.509823 
3959.000000	98.504091 
3958.000000	98.489541 
3957.000000	98.471378 
3956.000000	98.457042 
3955.000000	98.451973 
3954.000000	98.456567 
3953.000000	98.466528 
3952.000000	98.476212 
3951.000000	98.482271 
3950.000000	98.484874 
3949.000000	98.486782 
3948.000000	98.490641 
3947.000000	98.496573 
3946.000000	98.501757 
3945.000000	98.502155 
3944.000000	98.495464 
3943.000000	98.483237 
3942.000000	98.470476 
3941.000000	98.461212 
3940.000000	98.454544 
3939.000000	98.447014 
3938.000000	98.438442 
3937.000000	98.432958 
3936.000000	98.433599 
3935.000000	98.437112 
3934.000000	98.437722 
3933.000000	98.435299 
3932.000000	98.436703 
3931.000000	98.446144 
3930.000000	98.457913 
3929.000000	98.463002 
3928.000000	98.459802 
3927.000000	98.455564 
3926.000000	98.458178 
3925.000000	98.467451 
3924.000000	98.476475 
3923.000000	98.479702 
3922.000000	98.476651 
3921.000000	98.470646 
3920.000000	98.465684 
3919.000000	98.463739 
3918.000000	98.463036 
3917.000000	98.459585 
3916.000000	98.451545 
3915.000000	98.441096 
3914.000000	98.431927 
3913.000000	98.426498 
3912.000000	98.425484 
3911.000000	98.428490 
3910.000000	98.433462 
3909.000000	98.437627 
3908.000000	98.440948 
3907.000000	98.446759 
3906.000000	98.458429 
3905.000000	98.472447 
3904.000000	98.478891 
3903.000000	98.472555 
3902.000000	98.459447 
3901.000000	98.450080 
3900.000000	98.449829 
3899.000000	98.455650 
3898.000000	98.461215 
3897.000000	98.461927 
3896.000000	98.456477 
3895.000000	98.448185 
3894.000000	98.443244 
3893.000000	98.444836 
3892.000000	98.448688 
3891.000000	98.448782 
3890.000000	98.447478 
3889.000000	98.450241 
3888.000000	98.456214 
3887.000000	98.458157 
3886.000000	98.451025 
3885.000000	98.439259 
3884.000000	98.432165 
3883.000000	98.432297 
3882.000000	98.434391 
3881.000000	98.433990 
3880.000000	98.433421 
3879.000000	98.437108 
3878.000000	98.445141 
3877.000000	98.453754 
3876.000000	98.460727 
3875.000000	98.465935 
3874.000000	98.469701 
3873.000000	98.473411 
3872.000000	98.478797 
3871.000000	98.483872 
3870.000000	98.484718 
3869.000000	98.484504 
3868.000000	98.489689 
3867.000000	98.498594 
3866.000000	98.504018 
3865.000000	98.503086 
3864.000000	98.499274 
3863.000000	98.495175 
3862.000000	98.487330 
3861.000000	98.473560 
3860.000000	98.458382 
3859.000000	98.448221 
3858.000000	98.445224 
3857.000000	98.447245 
3856.000000	98.453715 
3855.000000	98.469305 
3854.000000	98.485943 
3853.000000	98.486793 
3852.000000	98.477263 
3851.000000	98.471525 
3850.000000	98.468756 
3849.000000	98.464724 
3848.000000	98.458203 
3847.000000	98.451027 
3846.000000	98.444399 
3845.000000	98.439784 
3844.000000	98.442118 
3843.000000	98.457294 
3842.000000	98.483899 
3841.000000	98.511170 
3840.000000	98.525105 
3839.000000	98.519799 
3838.000000	98.504119 
3837.000000	98.492410 
3836.000000	98.491685 
3835.000000	98.499534 
3834.000000	98.509415 
3833.000000	98.515618 
3832.000000	98.514664 
3831.000000	98.506205 
3830.000000	98.492865 
3829.000000	98.477666 
3828.000000	98.463354 
3827.000000	98.454071 
3826.000000	98.454389 
3825.000000	98.466231 
3824.000000	98.485455 
3823.000000	98.502828 
3822.000000	98.507399 
3821.000000	98.495903 
3820.000000	98.482618 
3819.000000	98.481925 
3818.000000	98.488356 
3817.000000	98.486515 
3816.000000	98.471735 
3815.000000	98.455739 
3814.000000	98.449246 
3813.000000	98.448692 
3812.000000	98.444533 
3811.000000	98.434886 
3810.000000	98.426344 
3809.000000	98.425750 
3808.000000	98.432521 
3807.000000	98.441021 
3806.000000	98.449224 
3805.000000	98.459628 
3804.000000	98.471310 
3803.000000	98.480844 
3802.000000	98.486512 
3801.000000	98.490736 
3800.000000	98.497704 
3799.000000	98.503280 
3798.000000	98.497713 
3797.000000	98.480191 
3796.000000	98.461905 
3795.000000	98.452831 
3794.000000	98.449322 
3793.000000	98.440183 
3792.000000	98.421550 
3791.000000	98.402396 
3790.000000	98.395194 
3789.000000	98.404449 
3788.000000	98.425322 
3787.000000	98.448721 
3786.000000	98.465453 
3785.000000	98.468995 
3784.000000	98.458533 
3783.000000	98.439590 
3782.000000	98.419912 
3781.000000	98.405060 
3780.000000	98.396642 
3779.000000	98.394670 
3778.000000	98.398955 
3777.000000	98.406235 
3776.000000	98.408673 
3775.000000	98.399292 
3774.000000	98.378762 
3773.000000	98.355997 
3772.000000	98.342497 
3771.000000	98.344507 
3770.000000	98.359362 
3769.000000	98.379625 
3768.000000	98.398463 
3767.000000	98.410014 
3766.000000	98.412267 
3765.000000	98.410653 
3764.000000	98.414799 
3763.000000	98.429366 
3762.000000	98.449128 
3761.000000	98.464127 
3760.000000	98.468129 
3759.000000	98.464221 
3758.000000	98.460358 
3757.000000	98.460827 
3756.000000	98.463936 
3755.000000	98.464223 
3754.000000	98.457165 
3753.000000	98.444893 
3752.000000	98.436681 
3751.000000	98.438277 
3750.000000	98.445999 
3749.000000	98.453676 
3748.000000	98.458329 
3747.000000	98.457638 
3746.000000	98.448475 
3745.000000	98.429118 
3744.000000	98.407902 
3743.000000	98.396051 
3742.000000	98.390339 
3741.000000	98.378729 
3740.000000	98.357998 
3739.000000	98.338367 
3738.000000	98.334440 
3737.000000	98.348832 
3736.000000	98.369355 
3735.000000	98.381822 
3734.000000	98.380878 
3733.000000	98.367102 
3732.000000	98.344591 
3731.000000	98.322143 
3730.000000	98.307083 
3729.000000	98.298500 
3728.000000	98.290558 
3727.000000	98.280529 
3726.000000	98.272834 
3725.000000	98.274492 
3724.000000	98.287932 
3723.000000	98.309894 
3722.000000	98.334320 
3721.000000	98.355660 
3720.000000	98.368739 
3719.000000	98.370633 
3718.000000	98.363596 
3717.000000	98.353157 
3716.000000	98.344311 
3715.000000	98.338255 
3714.000000	98.334941 
3713.000000	98.337611 
3712.000000	98.347589 
3711.000000	98.359436 
3710.000000	98.365538 
3709.000000	98.363306 
3708.000000	98.356711 
3707.000000	98.351024 
3706.000000	98.348826 
3705.000000	98.348711 
3704.000000	98.346952 
3703.000000	98.341005 
3702.000000	98.331688 
3701.000000	98.324531 
3700.000000	98.325753 
3699.000000	98.334874 
3698.000000	98.344209 
3697.000000	98.345045 
3696.000000	98.335215 
3695.000000	98.321137 
3694.000000	98.312712 
3693.000000	98.318314 
3692.000000	98.340778 
3691.000000	98.373186 
3690.000000	98.397319 
3689.000000	98.398548 
3688.000000	98.384142 
3687.000000	98.372130 
3686.000000	98.369564 
3685.000000	98.370328 
3684.000000	98.364408 
3683.000000	98.347554 
3682.000000	98.324838 
3681.000000	98.305570 
3680.000000	98.297654 
3679.000000	98.304702 
3678.000000	98.325699 
3677.000000	98.354483 
3676.000000	98.376267 
3675.000000	98.383962 
3674.000000	98.389058 
3673.000000	98.397879 
3672.000000	98.400744 
3671.000000	98.391308 
3670.000000	98.374759 
3669.000000	98.361104 
3668.000000	98.353218 
3667.000000	98.344807 
3666.000000	98.333258 
3665.000000	98.325643 
3664.000000	98.329815 
3663.000000	98.344555 
3662.000000	98.359597 
3661.000000	98.364841 
3660.000000	98.359201 
3659.000000	98.349977 
3658.000000	98.346908 
3657.000000	98.354335 
3656.000000	98.368727 
3655.000000	98.383726 
3654.000000	98.392457 
3653.000000	98.388468 
3652.000000	98.370806 
3651.000000	98.349515 
3650.000000	98.336969 
3649.000000	98.335035 
3648.000000	98.337869 
3647.000000	98.340927 
3646.000000	98.343461 
3645.000000	98.346637 
3644.000000	98.350457 
3643.000000	98.353513 
3642.000000	98.354666 
3641.000000	98.353382 
3640.000000	98.349935 
3639.000000	98.344520 
3638.000000	98.337473 
3637.000000	98.328874 
3636.000000	98.317782 
3635.000000	98.303580 
3634.000000	98.288187 
3633.000000	98.275661 
3632.000000	98.267606 
3631.000000	98.261680 
3630.000000	98.255534 
3629.000000	98.249142 
3628.000000	98.248707 
3627.000000	98.260351 
3626.000000	98.277711 
3625.000000	98.290688 
3624.000000	98.298267 
3623.000000	98.307734 
3622.000000	98.325833 
3621.000000	98.350583 
3620.000000	98.369771 
3619.000000	98.370918 
3618.000000	98.354824 
3617.000000	98.332896 
3616.000000	98.315591 
3615.000000	98.308813 
3614.000000	98.312721 
3613.000000	98.320806 
3612.000000	98.322698 
3611.000000	98.310207 
3610.000000	98.284207 
3609.000000	98.256568 
3608.000000	98.241510 
3607.000000	98.243084 
3606.000000	98.252764 
3605.000000	98.259143 
3604.000000	98.258648 
3603.000000	98.257920 
3602.000000	98.267332 
3601.000000	98.290599 
3600.000000	98.319089 
3599.000000	98.337570 
3598.000000	98.336004 
3597.000000	98.316461 
3596.000000	98.291186 
3595.000000	98.273078 
3594.000000	98.266191 
3593.000000	98.265894 
3592.000000	98.265532 
3591.000000	98.262196 
3590.000000	98.259285 
3589.000000	98.263782 
3588.000000	98.277614 
3587.000000	98.293764 
3586.000000	98.304581 
3585.000000	98.307769 
3584.000000	98.306173 
3583.000000	98.305211 
3582.000000	98.309732 
3581.000000	98.319266 
3580.000000	98.327896 
3579.000000	98.330097 
3578.000000	98.325706 
3577.000000	98.319042 
3576.000000	98.314047 
3575.000000	98.312741 
3574.000000	98.316018 
3573.000000	98.323932 
3572.000000	98.334213 
3571.000000	98.342401 
3570.000000	98.345536 
3569.000000	98.345558 
3568.000000	98.346814 
3567.000000	98.349440 
3566.000000	98.349565 
3565.000000	98.344998 
3564.000000	98.337241 
3563.000000	98.330081 
3562.000000	98.326393 
3561.000000	98.324995 
3560.000000	98.321446 
3559.000000	98.313160 
3558.000000	98.303484 
3557.000000	98.299504 
3556.000000	98.305173 
3555.000000	98.316647 
3554.000000	98.324748 
3553.000000	98.322864 
3552.000000	98.313190 
3551.000000	98.303159 
3550.000000	98.296310 
3549.000000	98.289866 
3548.000000	98.281643 
3547.000000	98.275138 
3546.000000	98.275166 
3545.000000	98.280216 
3544.000000	98.284027 
3543.000000	98.284056 
3542.000000	98.284319 
3541.000000	98.289543 
3540.000000	98.298775 
3539.000000	98.305026 
3538.000000	98.301038 
3537.000000	98.285362 
3536.000000	98.264689 
3535.000000	98.249306 
3534.000000	98.245421 
3533.000000	98.251415 
3532.000000	98.261516 
3531.000000	98.271852 
3530.000000	98.281386 
3529.000000	98.288341 
3528.000000	98.289417 
3527.000000	98.283954 
3526.000000	98.276053 
3525.000000	98.270549 
3524.000000	98.268577 
3523.000000	98.269033 
3522.000000	98.272740 
3521.000000	98.281847 
3520.000000	98.295349 
3519.000000	98.307669 
3518.000000	98.313198 
3517.000000	98.310802 
3516.000000	98.303042 
3515.000000	98.291927 
3514.000000	98.276995 
3513.000000	98.258012 
3512.000000	98.238594 
3511.000000	98.226071 
3510.000000	98.226068 
3509.000000	98.236597 
3508.000000	98.248815 
3507.000000	98.254778 
3506.000000	98.254394 
3505.000000	98.254153 
3504.000000	98.259788 
3503.000000	98.270610 
3502.000000	98.281714 
3501.000000	98.289787 
3500.000000	98.294685 
3499.000000	98.296380 
3498.000000	98.292806 
3497.000000	98.282288 
3496.000000	98.267573 
3495.000000	98.255536 
3494.000000	98.251207 
3493.000000	98.252201 
3492.000000	98.250821 
3491.000000	98.242268 
3490.000000	98.230080 
3489.000000	98.222260 
3488.000000	98.222278 
3487.000000	98.225768 
3486.000000	98.226234 
3485.000000	98.222016 
3484.000000	98.216669 
3483.000000	98.214485 
3482.000000	98.217157 
3481.000000	98.223741 
3480.000000	98.231650 
3479.000000	98.237509 
3478.000000	98.239257 
3477.000000	98.238829 
3476.000000	98.241617 
3475.000000	98.251901 
3474.000000	98.268530 
3473.000000	98.285313 
3472.000000	98.295004 
3471.000000	98.292978 
3470.000000	98.279071 
3469.000000	98.258201 
3468.000000	98.239105 
3467.000000	98.230071 
3466.000000	98.233866 
3465.000000	98.246408 
3464.000000	98.260135 
3463.000000	98.268135 
3462.000000	98.266139 
3461.000000	98.253765 
3460.000000	98.236403 
3459.000000	98.224526 
3458.000000	98.227011 
3457.000000	98.242707 
3456.000000	98.260585 
3455.000000	98.269914 
3454.000000	98.269964 
3453.000000	98.268281 
3452.000000	98.270773 
3451.000000	98.275929 
3450.000000	98.277771 
3449.000000	98.272189 
3448.000000	98.259940 
3447.000000	98.245858 
3446.000000	98.235976 
3445.000000	98.234040 
3444.000000	98.239428 
3443.000000	98.248013 
3442.000000	98.255341 
3441.000000	98.259430 
3440.000000	98.261220 
3439.000000	98.262620 
3438.000000	98.263818 
3437.000000	98.262017 
3436.000000	98.253585 
3435.000000	98.237968 
3434.000000	98.219118 
3433.000000	98.202626 
3432.000000	98.192015 
3431.000000	98.188602 
3430.000000	98.193167 
3429.000000	98.205444 
3428.000000	98.221635 
3427.000000	98.234688 
3426.000000	98.239133 
3425.000000	98.235604 
3424.000000	98.229590 
3423.000000	98.225186 
3422.000000	98.220930 
3421.000000	98.213158 
3420.000000	98.203529 
3419.000000	98.200592 
3418.000000	98.211253 
3417.000000	98.231026 
3416.000000	98.245414 
3415.000000	98.242942 
3414.000000	98.226432 
3413.000000	98.210039 
3412.000000	98.204912 
3411.000000	98.209036 
3410.000000	98.211405 
3409.000000	98.204809 
3408.000000	98.193312 
3407.000000	98.187782 
3406.000000	98.195774 
3405.000000	98.216437 
3404.000000	98.243106 
3403.000000	98.267612 
3402.000000	98.281945 
3401.000000	98.279935 
3400.000000	98.261704 
3399.000000	98.236749 
3398.000000	98.219197 
3397.000000	98.217317 
3396.000000	98.227546 
3395.000000	98.238972 
3394.000000	98.242780 
3393.000000	98.237494 
3392.000000	98.228050 
3391.000000	98.221837 
3390.000000	98.224156 
3389.000000	98.234233 
3388.000000	98.244882 
3387.000000	98.248009 
3386.000000	98.241981 
3385.000000	98.232799 
3384.000000	98.227226 
3383.000000	98.225822 
3382.000000	98.223861 
3381.000000	98.217748 
3380.000000	98.208189 
3379.000000	98.197312 
3378.000000	98.185336 
3377.000000	98.172361 
3376.000000	98.162399 
3375.000000	98.162552 
3374.000000	98.176249 
3373.000000	98.197910 
3372.000000	98.216058 
3371.000000	98.222758 
3370.000000	98.219777 
3369.000000	98.215237 
3368.000000	98.214727 
3367.000000	98.216295 
3366.000000	98.213779 
3365.000000	98.204144 
3364.000000	98.190926 
3363.000000	98.180617 
3362.000000	98.176396 
3361.000000	98.176113 
3360.000000	98.176316 
3359.000000	98.176648 
3358.000000	98.178837 
3357.000000	98.182384 
3356.000000	98.184052 
3355.000000	98.182474 
3354.000000	98.180721 
3353.000000	98.182007 
3352.000000	98.184262 
3351.000000	98.181623 
3350.000000	98.171555 
3349.000000	98.158730 
3348.000000	98.151647 
3347.000000	98.156322 
3346.000000	98.172795 
3345.000000	98.195479 
3344.000000	98.215974 
3343.000000	98.227364 
3342.000000	98.227746 
3341.000000	98.220322 
3340.000000	98.210402 
3339.000000	98.202579 
3338.000000	98.199731 
3337.000000	98.202409 
3336.000000	98.208165 
3335.000000	98.212521 
3334.000000	98.211694 
3333.000000	98.204525 
3332.000000	98.192501 
3331.000000	98.179303 
3330.000000	98.170090 
3329.000000	98.168911 
3328.000000	98.175412 
3327.000000	98.185066 
3326.000000	98.193822 
3325.000000	98.201539 
3324.000000	98.209787 
3323.000000	98.217391 
3322.000000	98.220117 
3321.000000	98.214733 
3320.000000	98.201965 
3319.000000	98.185319 
3318.000000	98.168429 
3317.000000	98.154301 
3316.000000	98.145959 
3315.000000	98.145984 
3314.000000	98.154308 
3313.000000	98.166622 
3312.000000	98.176114 
3311.000000	98.178214 
3310.000000	98.174206 
3309.000000	98.169435 
3308.000000	98.167010 
3307.000000	98.163740 
3306.000000	98.153648 
3305.000000	98.136209 
3304.000000	98.120214 
3303.000000	98.117754 
3302.000000	98.133360 
3301.000000	98.159022 
3300.000000	98.180371 
3299.000000	98.187722 
3298.000000	98.181375 
3297.000000	98.167970 
3296.000000	98.154179 
3295.000000	98.144489 
3294.000000	98.142122 
3293.000000	98.148377 
3292.000000	98.160332 
3291.000000	98.171127 
3290.000000	98.174338 
3289.000000	98.168615 
3288.000000	98.158604 
3287.000000	98.151832 
3286.000000	98.153659 
3285.000000	98.163424 
3284.000000	98.174967 
3283.000000	98.181941 
3282.000000	98.182946 
3281.000000	98.180944 
3280.000000	98.178412 
3279.000000	98.174998 
3278.000000	98.170155 
3277.000000	98.165597 
3276.000000	98.163566 
3275.000000	98.163997 
3274.000000	98.165176 
3273.000000	98.166456 
3272.000000	98.168638 
3271.000000	98.171820 
3270.000000	98.174399 
3269.000000	98.174743 
3268.000000	98.173160 
3267.000000	98.171655 
3266.000000	98.171560 
3265.000000	98.171441 
3264.000000	98.167908 
3263.000000	98.159617 
3262.000000	98.150262 
3261.000000	98.145869 
3260.000000	98.148462 
3259.000000	98.153903 
3258.000000	98.157213 
3257.000000	98.158497 
3256.000000	98.161941 
3255.000000	98.170086 
3254.000000	98.181233 
3253.000000	98.191707 
3252.000000	98.198266 
3251.000000	98.198324 
3250.000000	98.190303 
3249.000000	98.175191 
3248.000000	98.156805 
3247.000000	98.140024 
3246.000000	98.129343 
3245.000000	98.128373 
3244.000000	98.138248 
3243.000000	98.155402 
3242.000000	98.172477 
3241.000000	98.183098 
3240.000000	98.185705 
3239.000000	98.182414 
3238.000000	98.175025 
3237.000000	98.163311 
3236.000000	98.147477 
3235.000000	98.131752 
3234.000000	98.124578 
3233.000000	98.133134 
3232.000000	98.155685 
3231.000000	98.180003 
3230.000000	98.192195 
3229.000000	98.188738 
3228.000000	98.178610 
3227.000000	98.172543 
3226.000000	98.171855 
3225.000000	98.169492 
3224.000000	98.160350 
3223.000000	98.147402 
3222.000000	98.137332 
3221.000000	98.133001 
3220.000000	98.132071 
3219.000000	98.131723 
3218.000000	98.132548 
3217.000000	98.137642 
3216.000000	98.149314 
3215.000000	98.166803 
3214.000000	98.185693 
3213.000000	98.198802 
3212.000000	98.199321 
3211.000000	98.185667 
3210.000000	98.163962 
3209.000000	98.144602 
3208.000000	98.135343 
3207.000000	98.137426 
3206.000000	98.147144 
3205.000000	98.159045 
3204.000000	98.167413 
3203.000000	98.167722 
3202.000000	98.159721 
3201.000000	98.148922 
3200.000000	98.142776 
3199.000000	98.144383 
3198.000000	98.150748 
3197.000000	98.157374 
3196.000000	98.163235 
3195.000000	98.170206 
3194.000000	98.178425 
3193.000000	98.183909 
3192.000000	98.181885 
3191.000000	98.172688 
3190.000000	98.163485 
3189.000000	98.162690 
3188.000000	98.171624 
3187.000000	98.182410 
3186.000000	98.185238 
3185.000000	98.177636 
3184.000000	98.165620 
3183.000000	98.156009 
3182.000000	98.149674 
3181.000000	98.143226 
3180.000000	98.135501 
3179.000000	98.129587 
3178.000000	98.127797 
3177.000000	98.126938 
3176.000000	98.121393 
3175.000000	98.111043 
3174.000000	98.103608 
3173.000000	98.106949 
3172.000000	98.119755 
3171.000000	98.132377 
3170.000000	98.137465 
3169.000000	98.137509 
3168.000000	98.140155 
3167.000000	98.148132 
3166.000000	98.156928 
3165.000000	98.161854 
3164.000000	98.163671 
3163.000000	98.165493 
3162.000000	98.166994 
3161.000000	98.165185 
3160.000000	98.160419 
3159.000000	98.157885 
3158.000000	98.161235 
3157.000000	98.166843 
3156.000000	98.167190 
3155.000000	98.159443 
3154.000000	98.148136 
3153.000000	98.139118 
3152.000000	98.133724 
3151.000000	98.130591 
3150.000000	98.130686 
3149.000000	98.136901 
3148.000000	98.148688 
3147.000000	98.160039 
3146.000000	98.164127 
3145.000000	98.158828 
3144.000000	98.147382 
3143.000000	98.135244 
3142.000000	98.126912 
3141.000000	98.123709 
3140.000000	98.122956 
3139.000000	98.120576 
3138.000000	98.116249 
3137.000000	98.115018 
3136.000000	98.121706 
3135.000000	98.134270 
3134.000000	98.144942 
3133.000000	98.148320 
3132.000000	98.146623 
3131.000000	98.146429 
3130.000000	98.151617 
3129.000000	98.160040 
3128.000000	98.165741 
3127.000000	98.163750 
3126.000000	98.153843 
3125.000000	98.140815 
3124.000000	98.130880 
3123.000000	98.127025 
3122.000000	98.127826 
3121.000000	98.130750 
3120.000000	98.135706 
3119.000000	98.144291 
3118.000000	98.155846 
3117.000000	98.165893 
3116.000000	98.169749 
3115.000000	98.167365 
3114.000000	98.163338 
3113.000000	98.161669 
3112.000000	98.161657 
3111.000000	98.160094 
3110.000000	98.156602 
3109.000000	98.154599 
3108.000000	98.156483 
3107.000000	98.159925 
3106.000000	98.160621 
3105.000000	98.158064 
3104.000000	98.156502 
3103.000000	98.159443 
3102.000000	98.164253 
3101.000000	98.163732 
3100.000000	98.153981 
3099.000000	98.140220 
3098.000000	98.133730 
3097.000000	98.142034 
3096.000000	98.161636 
3095.000000	98.180676 
3094.000000	98.188989 
3093.000000	98.185402 
3092.000000	98.176208 
3091.000000	98.168578 
3090.000000	98.165880 
3089.000000	98.166919 
3088.000000	98.167128 
3087.000000	98.161352 
3086.000000	98.148529 
3085.000000	98.134654 
3084.000000	98.128911 
3083.000000	98.135297 
3082.000000	98.149049 
3081.000000	98.162416 
3080.000000	98.172463 
3079.000000	98.181150 
3078.000000	98.189017 
3077.000000	98.192146 
3076.000000	98.186556 
3075.000000	98.173575 
3074.000000	98.159432 
3073.000000	98.150594 
3072.000000	98.150244 
3071.000000	98.157600 
3070.000000	98.168399 
3069.000000	98.176593 
3068.000000	98.178189 
3067.000000	98.174387 
3066.000000	98.169756 
3065.000000	98.166802 
3064.000000	98.163560 
3063.000000	98.157173 
3062.000000	98.148381 
3061.000000	98.140895 
3060.000000	98.136826 
3059.000000	98.134193 
3058.000000	98.129655 
3057.000000	98.123165 
3056.000000	98.119265 
3055.000000	98.123284 
3054.000000	98.136035 
3053.000000	98.152440 
3052.000000	98.165674 
3051.000000	98.172697 
3050.000000	98.175295 
3049.000000	98.176117 
3048.000000	98.175060 
3047.000000	98.170170 
3046.000000	98.160708 
3045.000000	98.147883 
3044.000000	98.133516 
3043.000000	98.120172 
3042.000000	98.112428 
3041.000000	98.114907 
3040.000000	98.127016 
3039.000000	98.141032 
3038.000000	98.148056 
3037.000000	98.146183 
3036.000000	98.141377 
3035.000000	98.140421 
3034.000000	98.144787 
3033.000000	98.151772 
3032.000000	98.159418 
3031.000000	98.168315 
3030.000000	98.179351 
3029.000000	98.191568 
3028.000000	98.202266 
3027.000000	98.207768 
3026.000000	98.204008 
3025.000000	98.188520 
3024.000000	98.164064 
3023.000000	98.140145 
3022.000000	98.128512 
3021.000000	98.134643 
3020.000000	98.152555 
3019.000000	98.168675 
3018.000000	98.172371 
3017.000000	98.164182 
3016.000000	98.154309 
3015.000000	98.152743 
3014.000000	98.160667 
3013.000000	98.171002 
3012.000000	98.176323 
3011.000000	98.175057 
3010.000000	98.170285 
3009.000000	98.164705 
3008.000000	98.158642 
3007.000000	98.152275 
3006.000000	98.147429 
3005.000000	98.146119 
3004.000000	98.148357 
3003.000000	98.152429 
3002.000000	98.156627 
3001.000000	98.159719 
3000.000000	98.160144 
2999.000000	98.156217 
2998.000000	98.147802 
2997.000000	98.137332 
2996.000000	98.128768 
2995.000000	98.125488 
2994.000000	98.128844 
2993.000000	98.137746 
2992.000000	98.148921 
2991.000000	98.158198 
2990.000000	98.162911 
2989.000000	98.163995 
2988.000000	98.165297 
2987.000000	98.170030 
2986.000000	98.177712 
2985.000000	98.184825 
2984.000000	98.188037 
2983.000000	98.185952 
2982.000000	98.178209 
2981.000000	98.165131 
2980.000000	98.149623 
2979.000000	98.137769 
2978.000000	98.134640 
2977.000000	98.139193 
2976.000000	98.145365 
2975.000000	98.148889 
2974.000000	98.151154 
2973.000000	98.155290 
2972.000000	98.160548 
2971.000000	98.162767 
2970.000000	98.159579 
2969.000000	98.152878 
2968.000000	98.146066 
2967.000000	98.140565 
2966.000000	98.135496 
2965.000000	98.129581 
2964.000000	98.122809 
2963.000000	98.116925 
2962.000000	98.114520 
2961.000000	98.116943 
2960.000000	98.122873 
2959.000000	98.129158 
2958.000000	98.132888 
2957.000000	98.132693 
2956.000000	98.129293 
2955.000000	98.125695 
2954.000000	98.125394 
2953.000000	98.128315 
2952.000000	98.129214 
2951.000000	98.122378 
2950.000000	98.108133 
2949.000000	98.093034 
2948.000000	98.083573 
2947.000000	98.081297 
2946.000000	98.083641 
2945.000000	98.087036 
2944.000000	98.088615 
2943.000000	98.087249 
2942.000000	98.083972 
2941.000000	98.079873 
2940.000000	98.073450 
2939.000000	98.062585 
2938.000000	98.049542 
2937.000000	98.040354 
2936.000000	98.037309 
2935.000000	98.035317 
2934.000000	98.028758 
2933.000000	98.019181 
2932.000000	98.012673 
2931.000000	98.011455 
2930.000000	98.012246 
2929.000000	98.012190 
2928.000000	98.012287 
2927.000000	98.014616 
2926.000000	98.019679 
2925.000000	98.027158 
2924.000000	98.036044 
2923.000000	98.042944 
2922.000000	98.043303 
2921.000000	98.036378 
2920.000000	98.027264 
2919.000000	98.022466 
2918.000000	98.024259 
2917.000000	98.029800 
2916.000000	98.034266 
2915.000000	98.034513 
2914.000000	98.031713 
2913.000000	98.031208 
2912.000000	98.037830 
2911.000000	98.049886 
2910.000000	98.059363 
2909.000000	98.059614 
2908.000000	98.051950 
2907.000000	98.043449 
2906.000000	98.039913 
2905.000000	98.042564 
2904.000000	98.050130 
2903.000000	98.060384 
2902.000000	98.070277 
2901.000000	98.075653 
2900.000000	98.073818 
2899.000000	98.065283 
2898.000000	98.052293 
2897.000000	98.037559 
2896.000000	98.024993 
2895.000000	98.020373 
2894.000000	98.028573 
2893.000000	98.048861 
2892.000000	98.073679 
2891.000000	98.093286 
2890.000000	98.102189 
2889.000000	98.101555 
2888.000000	98.096452 
2887.000000	98.091847 
2886.000000	98.090760 
2885.000000	98.093681 
2884.000000	98.097935 
2883.000000	98.098613 
2882.000000	98.092580 
2881.000000	98.082292 
2880.000000	98.074277 
2879.000000	98.073150 
2878.000000	98.078155 
2877.000000	98.085797 
2876.000000	98.094074 
2875.000000	98.102589 
2874.000000	98.109720 
2873.000000	98.112165 
2872.000000	98.108012 
2871.000000	98.099185 
2870.000000	98.090095 
2869.000000	98.084203 
2868.000000	98.081861 
2867.000000	98.080819 
2866.000000	98.078409 
2865.000000	98.073569 
2864.000000	98.067124 
2863.000000	98.060193 
2862.000000	98.052817 
2861.000000	98.044810 
2860.000000	98.037763 
2859.000000	98.034960 
2858.000000	98.038457 
2857.000000	98.046534 
2856.000000	98.054403 
2855.000000	98.057080 
2854.000000	98.051443 
2853.000000	98.037181 
2852.000000	98.017906 
2851.000000	98.001417 
2850.000000	97.996143 
2849.000000	98.004740 
2848.000000	98.021302 
2847.000000	98.036310 
2846.000000	98.044482 
2845.000000	98.047010 
2844.000000	98.047184 
2843.000000	98.046305 
2842.000000	98.044428 
2841.000000	98.042870 
2840.000000	98.044193 
2839.000000	98.050387 
2838.000000	98.061724 
2837.000000	98.076138 
2836.000000	98.088984 
2835.000000	98.095400 
2834.000000	98.095004 
2833.000000	98.093120 
2832.000000	98.095203 
2831.000000	98.100874 
2830.000000	98.105586 
2829.000000	98.107248 
2828.000000	98.108155 
2827.000000	98.110496 
2826.000000	98.113327 
2825.000000	98.114952 
2824.000000	98.115391 
2823.000000	98.114977 
2822.000000	98.113076 
2821.000000	98.110133 
2820.000000	98.108744 
2819.000000	98.110069 
2818.000000	98.110534 
2817.000000	98.104854 
2816.000000	98.092180 
2815.000000	98.077577 
2814.000000	98.067753 
2813.000000	98.066487 
2812.000000	98.072922 
2811.000000	98.082242 
2810.000000	98.088657 
2809.000000	98.090149 
2808.000000	98.090345 
2807.000000	98.093924 
2806.000000	98.100259 
2805.000000	98.103677 
2804.000000	98.100322 
2803.000000	98.092816 
2802.000000	98.087429 
2801.000000	98.088093 
2800.000000	98.093819 
2799.000000	98.100526 
2798.000000	98.104574 
2797.000000	98.105579 
2796.000000	98.106549 
2795.000000	98.110317 
2794.000000	98.115174 
2793.000000	98.115024 
2792.000000	98.104882 
2791.000000	98.086067 
2790.000000	98.065834 
2789.000000	98.052432 
2788.000000	98.050155 
2787.000000	98.057496 
2786.000000	98.068932 
2785.000000	98.079075 
2784.000000	98.086048 
2783.000000	98.091012 
2782.000000	98.095153 
2781.000000	98.098405 
2780.000000	98.101012 
2779.000000	98.104309 
2778.000000	98.108793 
2777.000000	98.112761 
2776.000000	98.114153 
2775.000000	98.112967 
2774.000000	98.110788 
2773.000000	98.108848 
2772.000000	98.107718 
2771.000000	98.107900 
2770.000000	98.109030 
2769.000000	98.109044 
2768.000000	98.106081 
2767.000000	98.101386 
2766.000000	98.098656 
2765.000000	98.099937 
2764.000000	98.103362 
2763.000000	98.105380 
2762.000000	98.104096 
2761.000000	98.099975 
2760.000000	98.094790 
2759.000000	98.091189 
2758.000000	98.092186 
2757.000000	98.098966 
2756.000000	98.108734 
2755.000000	98.116202 
2754.000000	98.118239 
2753.000000	98.116534 
2752.000000	98.115006 
2751.000000	98.115183 
2750.000000	98.115234 
2749.000000	98.113159 
2748.000000	98.109313 
2747.000000	98.105200 
2746.000000	98.101298 
2745.000000	98.097420 
2744.000000	98.094089 
2743.000000	98.091658 
2742.000000	98.088673 
2741.000000	98.083656 
2740.000000	98.078850 
2739.000000	98.079406 
2738.000000	98.087132 
2737.000000	98.097026 
2736.000000	98.102514 
2735.000000	98.102891 
2734.000000	98.102898 
2733.000000	98.105436 
2732.000000	98.107885 
2731.000000	98.106512 
2730.000000	98.101739 
2729.000000	98.097209 
2728.000000	98.095388 
2727.000000	98.096281 
2726.000000	98.099423 
2725.000000	98.104531 
2724.000000	98.110076 
2723.000000	98.113565 
2722.000000	98.114504 
2721.000000	98.115703 
2720.000000	98.119704 
2719.000000	98.124108 
2718.000000	98.122521 
2717.000000	98.111712 
2716.000000	98.097164 
2715.000000	98.089339 
2714.000000	98.093351 
2713.000000	98.103640 
2712.000000	98.110369 
2711.000000	98.110183 
2710.000000	98.108454 
2709.000000	98.111113 
2708.000000	98.117455 
2707.000000	98.122480 
2706.000000	98.123684 
2705.000000	98.122586 
2704.000000	98.120789 
2703.000000	98.118034 
2702.000000	98.114460 
2701.000000	98.111721 
2700.000000	98.110378 
2699.000000	98.108108 
2698.000000	98.102280 
2697.000000	98.093343 
2696.000000	98.084518 
2695.000000	98.078910 
2694.000000	98.077774 
2693.000000	98.080341 
2692.000000	98.083877 
2691.000000	98.084790 
2690.000000	98.081558 
2689.000000	98.076731 
2688.000000	98.074961 
2687.000000	98.078699 
2686.000000	98.085925 
2685.000000	98.091546 
2684.000000	98.091034 
2683.000000	98.084355 
2682.000000	98.077139 
2681.000000	98.075992 
2680.000000	98.080728 
2679.000000	98.083044 
2678.000000	98.075774 
2677.000000	98.062335 
2676.000000	98.053477 
2675.000000	98.054969 
2674.000000	98.062693 
2673.000000	98.070497 
2672.000000	98.077968 
2671.000000	98.087317 
2670.000000	98.096283 
2669.000000	98.098988 
2668.000000	98.092991 
2667.000000	98.081818 
2666.000000	98.070801 
2665.000000	98.063634 
2664.000000	98.062899 
2663.000000	98.070066 
2662.000000	98.082893 
2661.000000	98.094800 
2660.000000	98.099011 
2659.000000	98.093287 
2658.000000	98.080388 
2657.000000	98.065126 
2656.000000	98.051740 
2655.000000	98.043013 
2654.000000	98.040269 
2653.000000	98.043359 
2652.000000	98.050331 
2651.000000	98.057274 
2650.000000	98.059783 
2649.000000	98.056106 
2648.000000	98.048975 
2647.000000	98.043542 
2646.000000	98.043251 
2645.000000	98.047680 
2644.000000	98.053390 
2643.000000	98.056095 
2642.000000	98.053269 
2641.000000	98.046127 
2640.000000	98.038388 
2639.000000	98.032049 
2638.000000	98.025817 
2637.000000	98.019173 
2636.000000	98.015558 
2635.000000	98.018092 
2634.000000	98.023732 
2633.000000	98.026137 
2632.000000	98.024096 
2631.000000	98.022352 
2630.000000	98.023513 
2629.000000	98.024347 
2628.000000	98.021976 
2627.000000	98.018344 
2626.000000	98.014856 
2625.000000	98.007370 
2624.000000	97.992218 
2623.000000	97.974729 
2622.000000	97.965773 
2621.000000	97.969983 
2620.000000	97.981941 
2619.000000	97.993904 
2618.000000	98.002655 
2617.000000	98.007786 
2616.000000	98.008010 
2615.000000	98.002530 
2614.000000	97.994106 
2613.000000	97.987948 
2612.000000	97.987703 
2611.000000	97.993533 
2610.000000	98.003455 
2609.000000	98.015215 
2608.000000	98.026632 
2607.000000	98.034948 
2606.000000	98.037164 
2605.000000	98.032334 
2604.000000	98.023357 
2603.000000	98.014736 
2602.000000	98.007817 
2601.000000	97.999672 
2600.000000	97.987571 
2599.000000	97.972897 
2598.000000	97.959524 
2597.000000	97.950296 
2596.000000	97.946777 
2595.000000	97.950263 
2594.000000	97.960091 
2593.000000	97.971952 
2592.000000	97.980782 
2591.000000	97.985215 
2590.000000	97.987399 
2589.000000	97.989420 
2588.000000	97.992014 
2587.000000	97.995358 
2586.000000	97.998002 
2585.000000	97.995698 
2584.000000	97.984813 
2583.000000	97.967360 
2582.000000	97.950216 
2581.000000	97.939345 
2580.000000	97.936989 
2579.000000	97.943328 
2578.000000	97.956693 
2577.000000	97.971635 
2576.000000	97.981082 
2575.000000	97.982616 
2574.000000	97.979992 
2573.000000	97.977055 
2572.000000	97.973181 
2571.000000	97.966837 
2570.000000	97.960600 
2569.000000	97.958955 
2568.000000	97.961950 
2567.000000	97.964045 
2566.000000	97.959782 
2565.000000	97.949365 
2564.000000	97.938725 
2563.000000	97.935110 
2562.000000	97.942111 
2561.000000	97.957251 
2560.000000	97.973351 
2559.000000	97.982517 
2558.000000	97.980069 
2557.000000	97.966692 
2556.000000	97.948304 
2555.000000	97.933043 
2554.000000	97.926099 
2553.000000	97.926452 
2552.000000	97.929172 
2551.000000	97.930919 
2550.000000	97.932482 
2549.000000	97.936335 
2548.000000	97.943181 
2547.000000	97.951236 
2546.000000	97.958139 
2545.000000	97.963383 
2544.000000	97.968774 
2543.000000	97.975242 
2542.000000	97.978687 
2541.000000	97.971814 
2540.000000	97.953095 
2539.000000	97.932304 
2538.000000	97.922964 
2537.000000	97.929062 
2536.000000	97.942711 
2535.000000	97.955424 
2534.000000	97.967351 
2533.000000	97.983167 
2532.000000	98.002509 
2531.000000	98.018557 
2530.000000	98.025057 
2529.000000	98.021731 
2528.000000	98.012798 
2527.000000	98.002365 
2526.000000	97.991837 
2525.000000	97.980594 
2524.000000	97.968422 
2523.000000	97.957314 
2522.000000	97.950701 
2521.000000	97.950459 
2520.000000	97.954526 
2519.000000	97.957584 
2518.000000	97.954959 
2517.000000	97.947438 
2516.000000	97.942572 
2515.000000	97.948671 
2514.000000	97.965032 
2513.000000	97.979412 
2512.000000	97.978323 
2511.000000	97.960122 
2510.000000	97.936164 
2509.000000	97.920094 
2508.000000	97.918767 
2507.000000	97.931722 
2506.000000	97.953066 
2505.000000	97.971671 
2504.000000	97.975528 
2503.000000	97.962176 
2502.000000	97.943819 
2501.000000	97.937547 
2500.000000	97.949250 
2499.000000	97.968782 
2498.000000	97.980876 
2497.000000	97.979076 
2496.000000	97.969349 
2495.000000	97.962424 
2494.000000	97.963667 
2493.000000	97.969609 
2492.000000	97.973355 
2491.000000	97.972516 
2490.000000	97.970635 
2489.000000	97.970814 
2488.000000	97.970518 
2487.000000	97.965068 
2486.000000	97.955145 
2485.000000	97.947478 
2484.000000	97.947031 
2483.000000	97.950915 
2482.000000	97.952192 
2481.000000	97.948616 
2480.000000	97.944985 
2479.000000	97.946335 
2478.000000	97.951135 
2477.000000	97.952936 
2476.000000	97.947632 
2475.000000	97.937182 
2474.000000	97.926988 
2473.000000	97.921847 
2472.000000	97.923837 
2471.000000	97.930993 
2470.000000	97.937746 
2469.000000	97.940213 
2468.000000	97.942035 
2467.000000	97.950593 
2466.000000	97.964707 
2465.000000	97.970713 
2464.000000	97.956429 
2463.000000	97.927232 
2462.000000	97.902929 
2461.000000	97.898734 
2460.000000	97.912798 
2459.000000	97.930791 
2458.000000	97.937904 
2457.000000	97.928236 
2456.000000	97.910202 
2455.000000	97.904095 
2454.000000	97.926205 
2453.000000	97.970140 
2452.000000	98.008367 
2451.000000	98.017268 
2450.000000	97.997943 
2449.000000	97.969207 
2448.000000	97.945203 
2447.000000	97.926271 
2446.000000	97.908633 
2445.000000	97.893897 
2444.000000	97.886580 
2443.000000	97.887879 
2442.000000	97.895661 
2441.000000	97.907954 
2440.000000	97.923055 
2439.000000	97.937058 
2438.000000	97.944287 
2437.000000	97.941763 
2436.000000	97.932954 
2435.000000	97.926009 
2434.000000	97.927303 
2433.000000	97.936357 
2432.000000	97.946886 
2431.000000	97.952098 
2430.000000	97.948705 
2429.000000	97.937809 
2428.000000	97.924450 
2427.000000	97.915500 
2426.000000	97.914681 
2425.000000	97.918891 
2424.000000	97.921663 
2423.000000	97.920405 
2422.000000	97.917432 
2421.000000	97.914043 
2420.000000	97.908234 
2419.000000	97.900092 
2418.000000	97.894832 
2417.000000	97.896428 
2416.000000	97.901063 
2415.000000	97.901496 
2414.000000	97.896917 
2413.000000	97.894391 
2412.000000	97.900381 
2411.000000	97.913792 
2410.000000	97.927734 
2409.000000	97.935932 
2408.000000	97.937102 
2407.000000	97.934747 
2406.000000	97.933266 
2405.000000	97.933716 
2404.000000	97.933688 
2403.000000	97.931482 
2402.000000	97.928726 
2401.000000	97.927925 
2400.000000	97.929364 
2399.000000	97.932194 
2398.000000	97.936627 
2397.000000	97.942477 
2396.000000	97.946922 
2395.000000	97.946810 
2394.000000	97.942953 
2393.000000	97.939611 
2392.000000	97.939760 
2391.000000	97.942808 
2390.000000	97.946321 
2389.000000	97.947054 
2388.000000	97.939941 
2387.000000	97.919160 
2386.000000	97.882709 
2385.000000	97.835948 
2384.000000	97.790300 
2383.000000	97.758546 
2382.000000	97.749812 
2381.000000	97.765610 
2380.000000	97.798251 
2379.000000	97.834022 
2378.000000	97.860383 
2377.000000	97.871526 
2376.000000	97.867672 
2375.000000	97.851041 
2374.000000	97.823822 
2373.000000	97.789234 
2372.000000	97.752719 
2371.000000	97.721642 
2370.000000	97.704009 
2369.000000	97.705485 
2368.000000	97.723726 
2367.000000	97.744990 
2366.000000	97.750769 
2365.000000	97.733860 
2364.000000	97.708083 
2363.000000	97.696795 
2362.000000	97.709166 
2361.000000	97.727493 
2360.000000	97.723333 
2359.000000	97.689155 
2358.000000	97.644884 
2357.000000	97.617412 
2356.000000	97.616480 
2355.000000	97.633983 
2354.000000	97.655689 
2353.000000	97.666905 
2352.000000	97.662135 
2351.000000	97.648347 
2350.000000	97.640098 
2349.000000	97.645239 
2348.000000	97.652723 
2347.000000	97.643088 
2346.000000	97.612402 
2345.000000	97.588910 
2344.000000	97.592829 
2343.000000	97.609904 
2342.000000	97.627158 
2341.000000	97.648039 
2340.000000	97.671646 
2339.000000	97.679667 
2338.000000	97.661571 
2337.000000	97.629478 
2336.000000	97.604396 
2335.000000	97.593746 
2334.000000	97.594149 
2333.000000	97.597868 
2332.000000	97.597849 
2331.000000	97.585360 
2330.000000	97.560647 
2329.000000	97.537596 
2328.000000	97.530054 
2327.000000	97.540202 
2326.000000	97.555086 
2325.000000	97.563875 
2324.000000	97.568236 
2323.000000	97.581676 
2322.000000	97.615484 
2321.000000	97.662794 
2320.000000	97.705119 
2319.000000	97.725732 
2318.000000	97.723331 
2317.000000	97.706836 
2316.000000	97.688027 
2315.000000	97.673393 
2314.000000	97.662951 
2313.000000	97.649848 
2312.000000	97.625762 
2311.000000	97.591250 
2310.000000	97.560424 
2309.000000	97.550708 
2308.000000	97.565004 
2307.000000	97.587814 
2306.000000	97.599547 
2305.000000	97.593545 
2304.000000	97.578428 
2303.000000	97.566724 
2302.000000	97.564557 
2301.000000	97.569428 
2300.000000	97.575894 
2299.000000	97.582858 
2298.000000	97.596458 
2297.000000	97.623965 
2296.000000	97.662202 
2295.000000	97.695477 
2294.000000	97.708015 
2293.000000	97.700087 
2292.000000	97.686659 
2291.000000	97.681450 
2290.000000	97.685304 
2289.000000	97.692163 
2288.000000	97.699566 
2287.000000	97.709419 
2286.000000	97.721604 
2285.000000	97.732825 
2284.000000	97.740045 
2283.000000	97.740455 
2282.000000	97.730621 
2281.000000	97.712509 
2280.000000	97.699410 
2279.000000	97.705500 
2278.000000	97.726559 
2277.000000	97.739480 
2276.000000	97.727915 
2275.000000	97.701451 
2274.000000	97.682046 
2273.000000	97.678041 
2272.000000	97.682137 
2271.000000	97.690709 
2270.000000	97.709785 
2269.000000	97.738999 
2268.000000	97.762982 
2267.000000	97.767316 
2266.000000	97.755690 
2265.000000	97.743335 
2264.000000	97.738131 
2263.000000	97.736061 
2262.000000	97.731526 
2261.000000	97.724004 
2260.000000	97.714833 
2259.000000	97.704541 
2258.000000	97.695524 
2257.000000	97.693550 
2256.000000	97.704713 
2255.000000	97.730402 
2254.000000	97.763425 
2253.000000	97.787903 
2252.000000	97.788134 
2251.000000	97.762254 
2250.000000	97.725707 
2249.000000	97.697273 
2248.000000	97.683837 
2247.000000	97.681951 
2246.000000	97.689049 
2245.000000	97.705161 
2244.000000	97.725157 
2243.000000	97.739805 
2242.000000	97.746722 
2241.000000	97.751933 
2240.000000	97.756615 
2239.000000	97.750451 
2238.000000	97.725138 
2237.000000	97.688546 
2236.000000	97.657012 
2235.000000	97.637566 
2234.000000	97.627727 
2233.000000	97.629967 
2232.000000	97.651556 
2231.000000	97.684426 
2230.000000	97.697963 
2229.000000	97.666909 
2228.000000	97.605207 
2227.000000	97.558681 
2226.000000	97.558942 
2225.000000	97.591801 
2224.000000	97.616561 
2223.000000	97.611142 
2222.000000	97.590195 
2221.000000	97.581513 
2220.000000	97.595199 
2219.000000	97.620075 
2218.000000	97.642937 
2217.000000	97.662493 
2216.000000	97.684267 
2215.000000	97.708042 
2214.000000	97.725497 
2213.000000	97.730064 
2212.000000	97.725077 
2211.000000	97.720106 
2210.000000	97.722583 
2209.000000	97.735955 
2208.000000	97.760581 
2207.000000	97.787241 
2206.000000	97.791371 
2205.000000	97.748969 
2204.000000	97.668397 
2203.000000	97.597350 
2202.000000	97.584526 
2201.000000	97.632695 
2200.000000	97.695625 
2199.000000	97.721194 
2198.000000	97.692396 
2197.000000	97.631325 
2196.000000	97.574980 
2195.000000	97.547923 
2194.000000	97.548730 
2193.000000	97.558315 
2192.000000	97.564665 
2191.000000	97.576427 
2190.000000	97.604597 
2189.000000	97.637218 
2188.000000	97.649435 
2187.000000	97.639652 
2186.000000	97.636715 
2185.000000	97.663813 
2184.000000	97.711581 
2183.000000	97.756908 
2182.000000	97.790592 
2181.000000	97.810220 
2180.000000	97.803092 
2179.000000	97.761935 
2178.000000	97.711558 
2177.000000	97.693856 
2176.000000	97.719083 
2175.000000	97.749732 
2174.000000	97.743244 
2173.000000	97.698946 
2172.000000	97.653708 
2171.000000	97.641648 
2170.000000	97.669390 
2169.000000	97.723023 
2168.000000	97.782497 
2167.000000	97.823510 
2166.000000	97.816693 
2165.000000	97.745217 
2164.000000	97.632697 
2163.000000	97.542307 
2162.000000	97.531811 
2161.000000	97.603146 
2160.000000	97.702201 
2159.000000	97.775082 
2158.000000	97.812383 
2157.000000	97.828988 
2156.000000	97.826367 
2155.000000	97.797072 
2154.000000	97.749748 
2153.000000	97.707486 
2152.000000	97.682950 
2151.000000	97.668158 
2150.000000	97.650082 
2149.000000	97.626435 
2148.000000	97.603917 
2147.000000	97.589301 
2146.000000	97.587260 
2145.000000	97.601926 
2144.000000	97.634791 
2143.000000	97.681025 
2142.000000	97.729346 
2141.000000	97.766590 
2140.000000	97.784233 
2139.000000	97.781914 
2138.000000	97.765779 
2137.000000	97.744756 
2136.000000	97.727725 
2135.000000	97.720805 
2134.000000	97.724281 
2133.000000	97.732830 
2132.000000	97.741072 
2131.000000	97.747570 
2130.000000	97.751233 
2129.000000	97.747624 
2128.000000	97.734863 
2127.000000	97.721360 
2126.000000	97.719373 
2125.000000	97.728576 
2124.000000	97.733937 
2123.000000	97.725405 
2122.000000	97.713401 
2121.000000	97.716502 
2120.000000	97.736120 
2119.000000	97.752072 
2118.000000	97.744938 
2117.000000	97.717140 
2116.000000	97.689289 
2115.000000	97.679825 
2114.000000	97.691615 
2113.000000	97.714857 
2112.000000	97.736968 
2111.000000	97.748443 
2110.000000	97.744054 
2109.000000	97.725052 
2108.000000	97.701766 
2107.000000	97.689145 
2106.000000	97.694607 
2105.000000	97.710078 
2104.000000	97.719084 
2103.000000	97.712660 
2102.000000	97.696297 
2101.000000	97.681295 
2100.000000	97.672241 
2099.000000	97.664503 
2098.000000	97.652838 
2097.000000	97.640734 
2096.000000	97.639725 
2095.000000	97.657963 
2094.000000	97.689714 
2093.000000	97.719090 
2092.000000	97.734862 
2091.000000	97.737533 
2090.000000	97.731256 
2089.000000	97.716531 
2088.000000	97.696237 
2087.000000	97.681331 
2086.000000	97.679694 
2085.000000	97.682274 
2084.000000	97.672692 
2083.000000	97.651562 
2082.000000	97.639078 
2081.000000	97.649472 
2080.000000	97.673958 
2079.000000	97.695451 
2078.000000	97.709969 
2077.000000	97.723549 
2076.000000	97.734294 
2075.000000	97.728620 
2074.000000	97.694761 
2073.000000	97.635056 
2072.000000	97.566924 
2071.000000	97.515307 
2070.000000	97.500972 
2069.000000	97.528934 
2068.000000	97.586486 
2067.000000	97.653032 
2066.000000	97.708980 
2065.000000	97.737996 
2064.000000	97.731906 
2063.000000	97.698112 
2062.000000	97.656123 
2061.000000	97.623163 
2060.000000	97.606161 
2059.000000	97.606151 
2058.000000	97.620905 
2057.000000	97.640779 
2056.000000	97.652220 
2055.000000	97.650010 
2054.000000	97.637046 
2053.000000	97.610635 
2052.000000	97.564286 
2051.000000	97.509874 
2050.000000	97.482440 
2049.000000	97.505507 
2048.000000	97.559578 
2047.000000	97.605395 
2046.000000	97.628006 
2045.000000	97.635492 
2044.000000	97.628388 
2043.000000	97.599351 
2042.000000	97.559747 
2041.000000	97.538395 
2040.000000	97.546621 
2039.000000	97.565493 
2038.000000	97.574454 
2037.000000	97.575356 
2036.000000	97.581187 
2035.000000	97.594489 
2034.000000	97.606360 
2033.000000	97.610133 
2032.000000	97.610046 
2031.000000	97.617899 
2030.000000	97.638763 
2029.000000	97.656893 
2028.000000	97.644939 
2027.000000	97.597557 
2026.000000	97.547862 
2025.000000	97.538110 
2024.000000	97.577874 
2023.000000	97.640945 
2022.000000	97.694529 
2021.000000	97.716522 
2020.000000	97.696537 
2019.000000	97.643888 
2018.000000	97.594557 
2017.000000	97.587218 
2016.000000	97.622519 
2015.000000	97.661951 
2014.000000	97.670252 
2013.000000	97.645093 
2012.000000	97.607283 
2011.000000	97.578880 
2010.000000	97.576491 
2009.000000	97.610093 
2008.000000	97.672722 
2007.000000	97.734826 
2006.000000	97.758439 
2005.000000	97.723493 
2004.000000	97.645430 
2003.000000	97.566880 
2002.000000	97.527104 
2001.000000	97.530773 
2000.000000	97.546986 
1999.000000	97.543294 
1998.000000	97.514616 
1997.000000	97.478148 
1996.000000	97.451605 
1995.000000	97.443088 
1994.000000	97.451898 
1993.000000	97.467767 
1992.000000	97.477297 
1991.000000	97.483541 
1990.000000	97.508680 
1989.000000	97.562485 
1988.000000	97.617573 
1987.000000	97.632298 
1986.000000	97.594524 
1985.000000	97.530422 
1984.000000	97.476185 
1983.000000	97.455638 
1982.000000	97.478106 
1981.000000	97.533831 
1980.000000	97.590353 
1979.000000	97.614941 
1978.000000	97.608702 
1977.000000	97.604371 
1976.000000	97.623268 
1975.000000	97.652300 
1974.000000	97.666962 
1973.000000	97.657213 
1972.000000	97.628391 
1971.000000	97.593883 
1970.000000	97.571061 
1969.000000	97.569742 
1968.000000	97.579007 
1967.000000	97.579105 
1966.000000	97.571040 
1965.000000	97.577685 
1964.000000	97.610594 
1963.000000	97.652016 
1962.000000	97.675343 
1961.000000	97.672854 
1960.000000	97.657819 
1959.000000	97.647366 
1958.000000	97.650149 
1957.000000	97.663037 
1956.000000	97.672959 
1955.000000	97.667939 
1954.000000	97.649710 
1953.000000	97.630062 
1952.000000	97.613330 
1951.000000	97.593416 
1950.000000	97.572673 
1949.000000	97.568188 
1948.000000	97.589271 
1947.000000	97.618792 
1946.000000	97.628723 
1945.000000	97.611225 
1944.000000	97.585756 
1943.000000	97.576872 
1942.000000	97.590264 
1941.000000	97.611072 
1940.000000	97.622355 
1939.000000	97.619584 
1938.000000	97.608868 
1937.000000	97.597919 
1936.000000	97.590586 
1935.000000	97.589189 
1934.000000	97.598109 
1933.000000	97.620689 
1932.000000	97.652263 
1931.000000	97.682154 
1930.000000	97.704011 
1929.000000	97.716630 
1928.000000	97.718868 
1927.000000	97.709823 
1926.000000	97.693935 
1925.000000	97.679337 
1924.000000	97.668126 
1923.000000	97.657414 
1922.000000	97.649490 
1921.000000	97.650498 
1920.000000	97.658860 
1919.000000	97.663595 
1918.000000	97.658226 
1917.000000	97.650146 
1916.000000	97.649837 
1915.000000	97.659041 
1914.000000	97.671136 
1913.000000	97.675870 
1912.000000	97.663621 
1911.000000	97.632434 
1910.000000	97.594966 
1909.000000	97.571262 
1908.000000	97.572219 
1907.000000	97.592316 
1906.000000	97.617853 
1905.000000	97.635914 
1904.000000	97.637156 
1903.000000	97.623469 
1902.000000	97.611376 
1901.000000	97.617075 
1900.000000	97.638957 
1899.000000	97.660473 
1898.000000	97.669193 
1897.000000	97.665966 
1896.000000	97.654695 
1895.000000	97.636301 
1894.000000	97.616654 
1893.000000	97.608296 
1892.000000	97.618525 
1891.000000	97.642124 
1890.000000	97.669045 
1889.000000	97.694924 
1888.000000	97.719539 
1887.000000	97.739647 
1886.000000	97.748622 
1885.000000	97.742308 
1884.000000	97.723536 
1883.000000	97.701454 
1882.000000	97.686265 
1881.000000	97.681880 
1880.000000	97.684513 
1879.000000	97.688083 
1878.000000	97.688940 
1877.000000	97.685782 
1876.000000	97.676393 
1875.000000	97.659570 
1874.000000	97.641732 
1873.000000	97.633406 
1872.000000	97.636928 
1871.000000	97.643914 
1870.000000	97.647198 
1869.000000	97.649894 
1868.000000	97.656203 
1867.000000	97.661347 
1866.000000	97.658777 
1865.000000	97.649577 
1864.000000	97.641287 
1863.000000	97.641070 
1862.000000	97.651074 
1861.000000	97.668136 
1860.000000	97.685893 
1859.000000	97.699220 
1858.000000	97.707211 
1857.000000	97.710251 
1856.000000	97.706787 
1855.000000	97.695550 
1854.000000	97.679975 
1853.000000	97.665376 
1852.000000	97.655329 
1851.000000	97.651765 
1850.000000	97.654114 
1849.000000	97.659952 
1848.000000	97.665173 
1847.000000	97.666539 
1846.000000	97.663782 
1845.000000	97.659607 
1844.000000	97.656359 
1843.000000	97.652109 
1842.000000	97.643092 
1841.000000	97.629634 
1840.000000	97.618079 
1839.000000	97.614176 
1838.000000	97.617726 
1837.000000	97.624924 
1836.000000	97.634147 
1835.000000	97.648118 
1834.000000	97.667518 
1833.000000	97.686689 
1832.000000	97.699754 
1831.000000	97.704416 
1830.000000	97.701054 
1829.000000	97.694833 
1828.000000	97.691676 
1827.000000	97.692172 
1826.000000	97.692683 
1825.000000	97.691676 
1824.000000	97.692429 
1823.000000	97.697869 
1822.000000	97.707692 
1821.000000	97.718601 
1820.000000	97.724961 
1819.000000	97.720360 
1818.000000	97.704439 
1817.000000	97.686371 
1816.000000	97.674873 
1815.000000	97.671667 
1814.000000	97.674499 
1813.000000	97.682870 
1812.000000	97.696344 
1811.000000	97.708585 
1810.000000	97.714657 
1809.000000	97.716792 
1808.000000	97.717804 
1807.000000	97.718146 
1806.000000	97.718188 
1805.000000	97.716990 
1804.000000	97.710067 
1803.000000	97.696066 
1802.000000	97.681858 
1801.000000	97.676594 
1800.000000	97.679098 
1799.000000	97.678442 
1798.000000	97.671413 
1797.000000	97.664372 
1796.000000	97.661468 
1795.000000	97.662382 
1794.000000	97.666214 
1793.000000	97.673403 
1792.000000	97.681674 
1791.000000	97.685822 
1790.000000	97.686470 
1789.000000	97.687841 
1788.000000	97.689669 
1787.000000	97.687303 
1786.000000	97.678255 
1785.000000	97.664911 
1784.000000	97.650463 
1783.000000	97.640641 
1782.000000	97.641265 
1781.000000	97.652360 
1780.000000	97.667506 
1779.000000	97.677124 
1778.000000	97.678720 
1777.000000	97.676599 
1776.000000	97.677213 
1775.000000	97.685350 
1774.000000	97.696929 
1773.000000	97.700305 
1772.000000	97.691550 
1771.000000	97.680053 
1770.000000	97.675448 
1769.000000	97.681053 
1768.000000	97.692911 
1767.000000	97.701829 
1766.000000	97.702021 
1765.000000	97.697053 
1764.000000	97.694056 
1763.000000	97.694620 
1762.000000	97.694126 
1761.000000	97.691137 
1760.000000	97.687784 
1759.000000	97.681649 
1758.000000	97.667721 
1757.000000	97.644140 
1756.000000	97.621698 
1755.000000	97.613036 
1754.000000	97.619421 
1753.000000	97.634882 
1752.000000	97.651821 
1751.000000	97.658924 
1750.000000	97.646446 
1749.000000	97.621581 
1748.000000	97.604642 
1747.000000	97.606844 
1746.000000	97.616309 
1745.000000	97.617936 
1744.000000	97.614150 
1743.000000	97.614044 
1742.000000	97.616896 
1741.000000	97.616613 
1740.000000	97.612795 
1739.000000	97.610538 
1738.000000	97.610450 
1737.000000	97.609639 
1736.000000	97.605949 
1735.000000	97.598610 
1734.000000	97.589777 
1733.000000	97.582833 
1732.000000	97.578810 
1731.000000	97.579144 
1730.000000	97.584426 
1729.000000	97.588138 
1728.000000	97.588512 
1727.000000	97.590664 
1726.000000	97.594989 
1725.000000	97.594013 
1724.000000	97.583349 
1723.000000	97.567891 
1722.000000	97.559715 
1721.000000	97.565962 
1720.000000	97.584153 
1719.000000	97.603445 
1718.000000	97.613790 
1717.000000	97.618205 
1716.000000	97.619739 
1715.000000	97.617448 
1714.000000	97.618705 
1713.000000	97.625813 
1712.000000	97.627617 
1711.000000	97.616603 
1710.000000	97.599668 
1709.000000	97.587573 
1708.000000	97.584702 
1707.000000	97.589771 
1706.000000	97.602477 
1705.000000	97.622487 
1704.000000	97.635950 
1703.000000	97.629486 
1702.000000	97.599501 
1701.000000	97.563262 
1700.000000	97.551723 
1699.000000	97.561978 
1698.000000	97.576181 
1697.000000	97.591694 
1696.000000	97.601838 
1695.000000	97.602420 
1694.000000	97.601293 
1693.000000	97.604139 
1692.000000	97.609719 
1691.000000	97.610694 
1690.000000	97.605597 
1689.000000	97.598968 
1688.000000	97.595634 
1687.000000	97.598012 
1686.000000	97.606108 
1685.000000	97.618482 
1684.000000	97.623946 
1683.000000	97.622426 
1682.000000	97.621241 
1681.000000	97.618702 
1680.000000	97.617441 
1679.000000	97.617704 
1678.000000	97.617317 
1677.000000	97.611108 
1676.000000	97.599926 
1675.000000	97.593486 
1674.000000	97.594006 
1673.000000	97.591869 
1672.000000	97.582192 
1671.000000	97.567188 
1670.000000	97.554563 
1669.000000	97.550616 
1668.000000	97.555777 
1667.000000	97.564307 
1666.000000	97.567410 
1665.000000	97.561908 
1664.000000	97.551041 
1663.000000	97.544180 
1662.000000	97.549052 
1661.000000	97.559585 
1660.000000	97.569371 
1659.000000	97.578746 
1658.000000	97.588206 
1657.000000	97.592389 
1656.000000	97.592206 
1655.000000	97.591554 
1654.000000	97.590012 
1653.000000	97.586892 
1652.000000	97.590744 
1651.000000	97.592324 
1650.000000	97.580666 
1649.000000	97.566938 
1648.000000	97.551065 
1647.000000	97.536376 
1646.000000	97.527949 
1645.000000	97.528746 
1644.000000	97.528675 
1643.000000	97.525543 
1642.000000	97.522876 
1641.000000	97.518442 
1640.000000	97.506885 
1639.000000	97.489188 
1638.000000	97.475390 
1637.000000	97.473898 
1636.000000	97.482015 
1635.000000	97.496092 
1634.000000	97.513377 
1633.000000	97.528063 
1632.000000	97.535399 
1631.000000	97.534259 
1630.000000	97.529064 
1629.000000	97.526947 
1628.000000	97.531210 
1627.000000	97.539427 
1626.000000	97.544781 
1625.000000	97.540621 
1624.000000	97.527361 
1623.000000	97.515730 
1622.000000	97.515725 
1621.000000	97.521479 
1620.000000	97.524922 
1619.000000	97.526558 
1618.000000	97.529513 
1617.000000	97.531739 
1616.000000	97.530914 
1615.000000	97.531692 
1614.000000	97.533569 
1613.000000	97.529650 
1612.000000	97.516060 
1611.000000	97.501121 
1610.000000	97.497991 
1609.000000	97.507746 
1608.000000	97.521221 
1607.000000	97.532416 
1606.000000	97.537650 
1605.000000	97.531376 
1604.000000	97.516357 
1603.000000	97.505355 
1602.000000	97.507476 
1601.000000	97.518218 
1600.000000	97.527252 
1599.000000	97.529823 
1598.000000	97.525873 
1597.000000	97.516525 
1596.000000	97.504926 
1595.000000	97.497136 
1594.000000	97.497190 
1593.000000	97.502161 
1592.000000	97.507508 
1591.000000	97.513924 
1590.000000	97.523415 
1589.000000	97.531892 
1588.000000	97.533318 
1587.000000	97.527993 
1586.000000	97.521503 
1585.000000	97.515736 
1584.000000	97.511200 
1583.000000	97.512680 
1582.000000	97.520154 
1581.000000	97.524762 
1580.000000	97.521615 
1579.000000	97.518454 
1578.000000	97.523551 
1577.000000	97.533244 
1576.000000	97.537834 
1575.000000	97.540842 
1574.000000	97.547396 
1573.000000	97.553724 
1572.000000	97.557912 
1571.000000	97.559305 
1570.000000	97.559133 
1569.000000	97.555993 
1568.000000	97.551847 
1567.000000	97.549785 
1566.000000	97.548732 
1565.000000	97.544204 
1564.000000	97.539991 
1563.000000	97.542602 
1562.000000	97.554889 
1561.000000	97.567313 
1560.000000	97.576869 
1559.000000	97.576780 
1558.000000	97.571553 
1557.000000	97.573926 
1556.000000	97.572381 
1555.000000	97.572423 
1554.000000	97.568209 
1553.000000	97.560236 
1552.000000	97.552636 
1551.000000	97.549328 
1550.000000	97.547486 
1549.000000	97.548129 
1548.000000	97.555886 
1547.000000	97.573372 
1546.000000	97.593795 
1545.000000	97.605048 
1544.000000	97.602431 
1543.000000	97.591004 
1542.000000	97.578703 
1541.000000	97.568890 
1540.000000	97.553550 
1539.000000	97.543653 
1538.000000	97.550566 
1537.000000	97.560668 
1536.000000	97.568132 
1535.000000	97.573555 
1534.000000	97.576549 
1533.000000	97.578564 
1532.000000	97.583067 
1531.000000	97.585476 
1530.000000	97.582956 
1529.000000	97.579867 
1528.000000	97.581806 
1527.000000	97.590996 
1526.000000	97.602714 
1525.000000	97.611000 
1524.000000	97.617180 
1523.000000	97.626019 
1522.000000	97.635436 
1521.000000	97.637347 
1520.000000	97.630354 
1519.000000	97.621154 
1518.000000	97.616638 
1517.000000	97.619451 
1516.000000	97.625495 
1515.000000	97.628458 
1514.000000	97.624508 
1513.000000	97.616980 
1512.000000	97.612297 
1511.000000	97.610890 
1510.000000	97.610921 
1509.000000	97.614006 
1508.000000	97.625414 
1507.000000	97.630587 
1506.000000	97.623062 
1505.000000	97.617301 
1504.000000	97.610451 
1503.000000	97.602461 
1502.000000	97.595281 
1501.000000	97.589938 
1500.000000	97.588997 
1499.000000	97.594503 
1498.000000	97.599927 
1497.000000	97.600406 
1496.000000	97.598546 
1495.000000	97.597643 
1494.000000	97.599630 
1493.000000	97.605127 
1492.000000	97.611669 
1491.000000	97.614436 
1490.000000	97.612155 
1489.000000	97.610428 
1488.000000	97.609836 
1487.000000	97.604801 
1486.000000	97.600085 
1485.000000	97.598620 
1484.000000	97.596342 
1483.000000	97.591936 
1482.000000	97.587882 
1481.000000	97.587754 
1480.000000	97.587980 
1479.000000	97.581348 
1478.000000	97.566492 
1477.000000	97.553135 
1476.000000	97.552258 
1475.000000	97.566424 
1474.000000	97.589503 
1473.000000	97.606671 
1472.000000	97.605467 
1471.000000	97.587717 
1470.000000	97.566266 
1469.000000	97.553287 
1468.000000	97.551543 
1467.000000	97.553831 
1466.000000	97.552898 
1465.000000	97.548288 
1464.000000	97.546895 
1463.000000	97.549056 
1462.000000	97.547407 
1461.000000	97.539785 
1460.000000	97.531968 
1459.000000	97.531236 
1458.000000	97.532711 
1457.000000	97.528647 
1456.000000	97.527033 
1455.000000	97.531191 
1454.000000	97.533400 
1453.000000	97.534960 
1452.000000	97.538138 
1451.000000	97.543122 
1450.000000	97.547451 
1449.000000	97.551330 
1448.000000	97.554723 
1447.000000	97.556912 
1446.000000	97.557697 
1445.000000	97.557765 
1444.000000	97.561287 
1443.000000	97.567877 
1442.000000	97.572127 
1441.000000	97.570551 
1440.000000	97.566867 
1439.000000	97.564679 
1438.000000	97.559724 
1437.000000	97.548854 
1436.000000	97.540290 
1435.000000	97.541071 
1434.000000	97.547253 
1433.000000	97.555297 
1432.000000	97.562396 
1431.000000	97.565674 
1430.000000	97.562936 
1429.000000	97.556692 
1428.000000	97.551056 
1427.000000	97.547822 
1426.000000	97.545691 
1425.000000	97.540744 
1424.000000	97.536685 
1423.000000	97.540209 
1422.000000	97.551988 
1421.000000	97.568487 
1420.000000	97.586390 
1419.000000	97.597806 
1418.000000	97.593123 
1417.000000	97.578118 
1416.000000	97.566664 
1415.000000	97.563440 
1414.000000	97.561509 
1413.000000	97.554610 
1412.000000	97.546122 
1411.000000	97.542936 
1410.000000	97.545520 
1409.000000	97.552105 
1408.000000	97.561316 
1407.000000	97.570348 
1406.000000	97.575573 
1405.000000	97.575051 
1404.000000	97.572699 
1403.000000	97.569777 
1402.000000	97.562190 
1401.000000	97.549560 
1400.000000	97.538733 
1399.000000	97.537608 
1398.000000	97.546069 
1397.000000	97.559468 
1396.000000	97.574410 
1395.000000	97.586989 
1394.000000	97.589637 
1393.000000	97.580047 
1392.000000	97.568991 
1391.000000	97.568420 
1390.000000	97.579958 
1389.000000	97.594851 
1388.000000	97.601397 
1387.000000	97.595193 
1386.000000	97.583165 
1385.000000	97.574776 
1384.000000	97.574016 
1383.000000	97.578092 
1382.000000	97.581768 
1381.000000	97.582968 
1380.000000	97.581560 
1379.000000	97.577561 
1378.000000	97.571033 
1377.000000	97.563250 
1376.000000	97.556938 
1375.000000	97.555366 
1374.000000	97.558306 
1373.000000	97.560883 
1372.000000	97.558596 
1371.000000	97.552931 
1370.000000	97.549568 
1369.000000	97.550506 
1368.000000	97.554829 
1367.000000	97.561255 
1366.000000	97.569075 
1365.000000	97.577683 
1364.000000	97.584910 
1363.000000	97.587406 
1362.000000	97.583855 
1361.000000	97.575669 
1360.000000	97.565315 
1359.000000	97.556646 
1358.000000	97.553860 
1357.000000	97.558228 
1356.000000	97.567609 
1355.000000	97.579097 
1354.000000	97.590753 
1353.000000	97.600867 
1352.000000	97.604903 
1351.000000	97.599331 
1350.000000	97.587888 
1349.000000	97.577712 
1348.000000	97.574330 
1347.000000	97.578287 
1346.000000	97.586828 
1345.000000	97.596466 
1344.000000	97.605021 
1343.000000	97.611889 
1342.000000	97.616970 
1341.000000	97.618883 
1340.000000	97.615637 
1339.000000	97.607577 
1338.000000	97.597896 
1337.000000	97.590331 
1336.000000	97.586997 
1335.000000	97.587181 
1334.000000	97.587993 
1333.000000	97.586725 
1332.000000	97.582796 
1331.000000	97.578057 
1330.000000	97.574996 
1329.000000	97.575084 
1328.000000	97.578721 
1327.000000	97.585383 
1326.000000	97.592139 
1325.000000	97.593662 
1324.000000	97.588195 
1323.000000	97.580118 
1322.000000	97.575173 
1321.000000	97.575299 
1320.000000	97.579862 
1319.000000	97.588626 
1318.000000	97.600516 
1317.000000	97.611555 
1316.000000	97.617209 
1315.000000	97.616326 
1314.000000	97.610872 
1313.000000	97.603071 
1312.000000	97.594644 
1311.000000	97.588345 
1310.000000	97.587157 
1309.000000	97.591030 
1308.000000	97.595803 
1307.000000	97.597512 
1306.000000	97.596945 
1305.000000	97.597476 
1304.000000	97.600019 
1303.000000	97.600911 
1302.000000	97.596291 
1301.000000	97.587309 
1300.000000	97.579665 
1299.000000	97.577757 
1298.000000	97.580840 
1297.000000	97.585183 
1296.000000	97.588423 
1295.000000	97.591128 
1294.000000	97.594866 
1293.000000	97.600213 
1292.000000	97.605997 
1291.000000	97.609585 
1290.000000	97.608862 
1289.000000	97.604888 
1288.000000	97.601783 
1287.000000	97.602815 
1286.000000	97.606845 
1285.000000	97.609435 
1284.000000	97.606991 
1283.000000	97.599492 
1282.000000	97.590934 
1281.000000	97.587447 
1280.000000	97.592804 
1279.000000	97.604061 
1278.000000	97.612780 
1277.000000	97.612912 
1276.000000	97.606611 
1275.000000	97.600998 
1274.000000	97.599937 
1273.000000	97.601129 
1272.000000	97.600496 
1271.000000	97.596628 
1270.000000	97.590685 
1269.000000	97.584522 
1268.000000	97.580218 
1267.000000	97.579465 
1266.000000	97.582061 
1265.000000	97.586389 
1264.000000	97.591253 
1263.000000	97.595639 
1262.000000	97.597667 
1261.000000	97.596654 
1260.000000	97.596546 
1259.000000	97.603703 
1258.000000	97.618778 
1257.000000	97.633677 
1256.000000	97.638842 
1255.000000	97.632492 
1254.000000	97.621212 
1253.000000	97.612835 
1252.000000	97.611067 
1251.000000	97.616184 
1250.000000	97.626817 
1249.000000	97.639067 
1248.000000	97.646393 
1247.000000	97.644046 
1246.000000	97.634536 
1245.000000	97.627034 
1244.000000	97.629237 
1243.000000	97.639873 
1242.000000	97.650377 
1241.000000	97.653727 
1240.000000	97.649961 
1239.000000	97.643149 
1238.000000	97.635381 
1237.000000	97.625128 
1236.000000	97.610437 
1235.000000	97.592392 
1234.000000	97.575600 
1233.000000	97.565576 
1232.000000	97.564895 
1231.000000	97.571111 
1230.000000	97.578927 
1229.000000	97.584834 
1228.000000	97.588799 
1227.000000	97.591699 
1226.000000	97.593079 
1225.000000	97.592039 
1224.000000	97.588846 
1223.000000	97.584943 
1222.000000	97.582390 
1221.000000	97.583397 
1220.000000	97.588893 
1219.000000	97.596949 
1218.000000	97.603699 
1217.000000	97.606381 
1216.000000	97.604866 
1215.000000	97.601068 
1214.000000	97.598326 
1213.000000	97.599906 
1212.000000	97.605463 
1211.000000	97.610026 
1210.000000	97.609977 
1209.000000	97.608648 
1208.000000	97.611431 
1207.000000	97.616481 
1206.000000	97.616577 
1205.000000	97.610601 
1204.000000	97.606085 
1203.000000	97.608089 
1202.000000	97.612020 
1201.000000	97.611269 
1200.000000	97.606282 
1199.000000	97.601195 
1198.000000	97.596043 
1197.000000	97.588276 
1196.000000	97.579264 
1195.000000	97.573741 
1194.000000	97.573959 
1193.000000	97.578235 
1192.000000	97.584382 
1191.000000	97.591685 
1190.000000	97.600776 
1189.000000	97.613266 
1188.000000	97.628971 
1187.000000	97.642177 
1186.000000	97.645123 
1185.000000	97.637990 
1184.000000	97.630562 
1183.000000	97.630465 
1182.000000	97.634572 
1181.000000	97.636097 
1180.000000	97.634507 
1179.000000	97.632176 
1178.000000	97.626257 
1177.000000	97.612467 
1176.000000	97.594497 
1175.000000	97.581320 
1174.000000	97.575720 
1173.000000	97.572876 
1172.000000	97.570586 
1171.000000	97.573370 
1170.000000	97.584571 
1169.000000	97.599880 
1168.000000	97.610646 
1167.000000	97.610541 
1166.000000	97.599774 
1165.000000	97.586919 
1164.000000	97.584834 
1163.000000	97.598497 
1162.000000	97.617120 
1161.000000	97.624283 
1160.000000	97.615787 
1159.000000	97.601844 
1158.000000	97.592505 
1157.000000	97.588675 
1156.000000	97.588032 
1155.000000	97.590555 
1154.000000	97.594363 
1153.000000	97.593802 
1152.000000	97.587282 
1151.000000	97.582110 
1150.000000	97.586188 
1149.000000	97.598035 
1148.000000	97.609031 
1147.000000	97.612529 
1146.000000	97.607195 
1145.000000	97.594314 
1144.000000	97.576572 
1143.000000	97.558854 
1142.000000	97.546354 
1141.000000	97.540799 
1140.000000	97.539119 
1139.000000	97.535592 
1138.000000	97.526308 
1137.000000	97.513790 
1136.000000	97.506259 
1135.000000	97.508708 
1134.000000	97.514845 
1133.000000	97.512359 
1132.000000	97.496898 
1131.000000	97.476157 
1130.000000	97.458181 
1129.000000	97.440231 
1128.000000	97.413316 
1127.000000	97.375469 
1126.000000	97.336660 
1125.000000	97.310076 
1124.000000	97.299274 
1123.000000	97.293431 
1122.000000	97.276268 
1121.000000	97.242195 
1120.000000	97.202749 
1119.000000	97.174275 
1118.000000	97.160943 
1117.000000	97.154550 
1116.000000	97.148949 
1115.000000	97.146135 
1114.000000	97.146236 
1113.000000	97.139870 
1112.000000	97.116837 
1111.000000	97.079319 
1110.000000	97.040987 
1109.000000	97.013284 
1108.000000	96.995213 
1107.000000	96.975862 
1106.000000	96.947053 
1105.000000	96.914097 
1104.000000	96.891557 
1103.000000	96.885500 
1102.000000	96.882303 
1101.000000	96.862100 
1100.000000	96.821779 
1099.000000	96.777060 
1098.000000	96.744087 
1097.000000	96.724097 
1096.000000	96.709089 
1095.000000	96.693929 
1094.000000	96.679299 
1093.000000	96.668034 
1092.000000	96.661672 
1091.000000	96.656356 
1090.000000	96.641435 
1089.000000	96.608306 
1088.000000	96.562248 
1087.000000	96.519432 
1086.000000	96.490595 
1085.000000	96.474265 
1084.000000	96.466741 
1083.000000	96.468465 
1082.000000	96.476283 
1081.000000	96.479219 
1080.000000	96.468877 
1079.000000	96.447306 
1078.000000	96.418712 
1077.000000	96.380982 
1076.000000	96.333428 
1075.000000	96.286438 
1074.000000	96.253333 
1073.000000	96.235957 
1072.000000	96.226988 
1071.000000	96.223498 
1070.000000	96.228922 
1069.000000	96.242016 
1068.000000	96.252084 
1067.000000	96.247976 
1066.000000	96.228468 
1065.000000	96.202751 
1064.000000	96.182511 
1063.000000	96.171992 
1062.000000	96.162517 
1061.000000	96.138431 
1060.000000	96.092766 
1059.000000	96.037234 
1058.000000	95.993651 
1057.000000	95.974845 
1056.000000	95.975224 
1055.000000	95.978430 
1054.000000	95.972200 
1053.000000	95.957178 
1052.000000	95.943250 
1051.000000	95.937202 
1050.000000	95.933833 
1049.000000	95.920128 
1048.000000	95.886735 
1047.000000	95.833790 
1046.000000	95.769465 
1045.000000	95.707446 
1044.000000	95.662392 
1043.000000	95.639354 
1042.000000	95.626338 
1041.000000	95.604335 
1040.000000	95.566581 
1039.000000	95.522225 
1038.000000	95.480877 
1037.000000	95.442200 
1036.000000	95.403535 
1035.000000	95.367713 
1034.000000	95.335924 
1033.000000	95.299827 
1032.000000	95.249421 
1031.000000	95.185216 
1030.000000	95.115446 
1029.000000	95.044398 
1028.000000	94.971345 
1027.000000	94.899132 
1026.000000	94.835347 
1025.000000	94.783638 
1024.000000	94.739297 
1023.000000	94.694832 
1022.000000	94.646689 
1021.000000	94.596346 
1020.000000	94.547481 
1019.000000	94.501806 
1018.000000	94.455559 
1017.000000	94.401787 
1016.000000	94.339216 
1015.000000	94.277282 
1014.000000	94.227829 
1013.000000	94.191399 
1012.000000	94.155440 
1011.000000	94.107114 
1010.000000	94.045139 
1009.000000	93.977133 
1008.000000	93.907303 
1007.000000	93.830803 
1006.000000	93.742204 
1005.000000	93.647556 
1004.000000	93.564252 
1003.000000	93.507265 
1002.000000	93.476686 
1001.000000	93.458983 
1000.000000	93.437157 
999.000000	 93.398910 
998.000000	 93.341430 
997.000000	 93.273640 
996.000000	 93.210388 
995.000000	 93.158804 
994.000000	 93.111843 
993.000000	 93.059289 
992.000000	 93.001799 
991.000000	 92.948292 
990.000000	 92.902626 
989.000000	 92.860125 
988.000000	 92.815177 
987.000000	 92.764476 
986.000000	 92.704346 
985.000000	 92.633473 
984.000000	 92.557875 
983.000000	 92.484471 
982.000000	 92.409603 
981.000000	 92.323230 
980.000000	 92.225545 
979.000000	 92.129263 
978.000000	 92.042494 
977.000000	 91.958939 
976.000000	 91.869206 
975.000000	 91.772355 
974.000000	 91.670213 
973.000000	 91.558761 
972.000000	 91.433642 
971.000000	 91.299600 
970.000000	 91.167265 
969.000000	 91.043188 
968.000000	 90.928146 
967.000000	 90.822207 
966.000000	 90.726622 
965.000000	 90.642788 
964.000000	 90.572212 
963.000000	 90.515202 
962.000000	 90.468409 
961.000000	 90.427640 
960.000000	 90.394309 
959.000000	 90.374732 
958.000000	 90.372012 
957.000000	 90.383503 
956.000000	 90.407248 
955.000000	 90.445318 
954.000000	 90.499035 
953.000000	 90.565539 
952.000000	 90.640031 
951.000000	 90.716817 
950.000000	 90.787882 
949.000000	 90.845830 
948.000000	 90.888661 
947.000000	 90.916421 
946.000000	 90.923006 
945.000000	 90.897479 
944.000000	 90.834946 
943.000000	 90.740842 
942.000000	 90.623671 
941.000000	 90.490365 
940.000000	 90.351691 
939.000000	 90.224576 
938.000000	 90.122052 
937.000000	 90.043645 
936.000000	 89.979971 
935.000000	 89.923989 
934.000000	 89.874532 
933.000000	 89.832059 
932.000000	 89.795255 
931.000000	 89.761253 
930.000000	 89.727184 
929.000000	 89.691467 
928.000000	 89.653709 
927.000000	 89.613277 
926.000000	 89.569440 
925.000000	 89.523140 
924.000000	 89.475640 
923.000000	 89.425345 
922.000000	 89.371808 
921.000000	 89.324380 
920.000000	 89.297402 
919.000000	 89.290061 
918.000000	 89.279743 
917.000000	 89.246138 
916.000000	 89.196343 
915.000000	 89.155398 
914.000000	 89.136909 
913.000000	 89.134770 
912.000000	 89.138714 
911.000000	 89.142016 
910.000000	 89.135035 
909.000000	 89.108491 
908.000000	 89.067913 
907.000000	 89.032055 
906.000000	 89.011440 
905.000000	 88.997907 
904.000000	 88.979008 
903.000000	 88.953228 
902.000000	 88.926862 
901.000000	 88.903970 
900.000000	 88.883944 
899.000000	 88.863818 
898.000000	 88.841196 
897.000000	 88.818746 
896.000000	 88.803629 
895.000000	 88.795806 
894.000000	 88.781621 
893.000000	 88.749515 
892.000000	 88.708290 
891.000000	 88.676472 
890.000000	 88.655341 
889.000000	 88.627927 
888.000000	 88.585711 
887.000000	 88.539974 
886.000000	 88.502077 
885.000000	 88.467540 
884.000000	 88.426523 
883.000000	 88.376139 
882.000000	 88.313688 
881.000000	 88.230179 
880.000000	 88.122358 
879.000000	 88.003568 
878.000000	 87.892147 
877.000000	 87.793686 
876.000000	 87.701764 
875.000000	 87.609858 
874.000000	 87.515709 
873.000000	 87.419529 
872.000000	 87.322969 
871.000000	 87.224173 
870.000000	 87.111135 
869.000000	 86.968671 
868.000000	 86.797282 
867.000000	 86.617947 
866.000000	 86.452261 
865.000000	 86.302866 
864.000000	 86.158125 
863.000000	 86.010341 
862.000000	 85.863438 
861.000000	 85.725743 
860.000000	 85.600105 
859.000000	 85.481390 
858.000000	 85.363515 
857.000000	 85.248876 
856.000000	 85.146437 
855.000000	 85.057888 
854.000000	 84.972790 
853.000000	 84.883859 
852.000000	 84.798900 
851.000000	 84.727570 
850.000000	 84.664162 
849.000000	 84.596854 
848.000000	 84.528291 
847.000000	 84.472307 
846.000000	 84.434715 
845.000000	 84.413625 
844.000000	 84.415923 
843.000000	 84.455131 
842.000000	 84.530445 
841.000000	 84.621013 
840.000000	 84.701681 
839.000000	 84.753614 
838.000000	 84.763362 
837.000000	 84.726644 
836.000000	 84.653316 
835.000000	 84.556459 
834.000000	 84.436364 
833.000000	 84.285566 
832.000000	 84.107207 
831.000000	 83.916407 
830.000000	 83.726365 
829.000000	 83.546479 
828.000000	 83.389823 
827.000000	 83.263263 
826.000000	 83.151665 
825.000000	 83.034192 
824.000000	 82.916973 
823.000000	 82.826696 
822.000000	 82.772054 
821.000000	 82.734855 
820.000000	 82.696659 
819.000000	 82.651937 
818.000000	 82.600788 
817.000000	 82.551447 
816.000000	 82.525000 
815.000000	 82.533895 
814.000000	 82.557955 
813.000000	 82.565424 
812.000000	 82.555976 
811.000000	 82.556950 
810.000000	 82.576048 
809.000000	 82.586268 
808.000000	 82.566081 
807.000000	 82.530619 
806.000000	 82.511809 
805.000000	 82.524205 
804.000000	 82.557562 
803.000000	 82.587147 
802.000000	 82.586960 
801.000000	 82.550515 
800.000000	 82.504915 
799.000000	 82.490107 
798.000000	 82.519302 
797.000000	 82.572213 
796.000000	 82.626236 
795.000000	 82.675829 
794.000000	 82.720483 
793.000000	 82.755191 
792.000000	 82.780658 
791.000000	 82.808182 
790.000000	 82.848349 
789.000000	 82.904281 
788.000000	 82.974107 
787.000000	 83.046970 
786.000000	 83.102392 
785.000000	 83.132120 
784.000000	 83.157780 
783.000000	 83.205555 
782.000000	 83.267103 
781.000000	 83.311077 
780.000000	 83.333048 
779.000000	 83.365805 
778.000000	 83.433845 
777.000000	 83.522400 
776.000000	 83.600915 
775.000000	 83.656638 
774.000000	 83.696485 
773.000000	 83.734570 
772.000000	 83.786370 
771.000000	 83.857567 
770.000000	 83.930876 
769.000000	 83.981267 
768.000000	 84.010936 
767.000000	 84.051285 
766.000000	 84.122681 
765.000000	 84.210148 
764.000000	 84.288500 
763.000000	 84.354849 
762.000000	 84.425103 
761.000000	 84.511035 
760.000000	 84.610431 
759.000000	 84.710545 
758.000000	 84.796486 
757.000000	 84.865719 
756.000000	 84.934491 
755.000000	 85.017996 
754.000000	 85.106853 
753.000000	 85.180650 
752.000000	 85.242089 
751.000000	 85.313093 
750.000000	 85.394852 
749.000000	 85.460509 
748.000000	 85.499530 
747.000000	 85.543219 
746.000000	 85.625570 
745.000000	 85.735597 
744.000000	 85.830298 
743.000000	 85.886499 
742.000000	 85.921397 
741.000000	 85.964568 
740.000000	 86.023374 
739.000000	 86.077305 
738.000000	 86.101665 
737.000000	 86.099313 
736.000000	 86.109445 
735.000000	 86.175648 
734.000000	 86.300331 
733.000000	 86.437899 
732.000000	 86.536482 
731.000000	 86.580049 
730.000000	 86.590969 
729.000000	 86.605212 
728.000000	 86.649578 
727.000000	 86.727193 
726.000000	 86.813484 
725.000000	 86.874570 
724.000000	 86.897388 
723.000000	 86.897936 
722.000000	 86.902075 
721.000000	 86.928822 
720.000000	 86.986843 
719.000000	 87.067987 
718.000000	 87.144829 
717.000000	 87.192793 
716.000000	 87.218617 
715.000000	 87.256099 
714.000000	 87.327867 
713.000000	 87.420974 
712.000000	 87.506370 
711.000000	 87.568662 
710.000000	 87.609040 
709.000000	 87.633153 
708.000000	 87.649546 
707.000000	 87.671936 
706.000000	 87.709850 
705.000000	 87.761214 
704.000000	 87.819472 
703.000000	 87.881087 
702.000000	 87.942365 
701.000000	 87.996275 
700.000000	 88.037178 
699.000000	 88.064866 
698.000000	 88.082124 
697.000000	 88.096009 
696.000000	 88.119439 
695.000000	 88.158405 
694.000000	 88.200107 
693.000000	 88.227973 
692.000000	 88.249247 
691.000000	 88.292341 
690.000000	 88.371153 
689.000000	 88.466477 
688.000000	 88.545497 
687.000000	 88.584668 
686.000000	 88.575775 
685.000000	 88.533006 
684.000000	 88.497609 
683.000000	 88.507888 
682.000000	 88.553165 
681.000000	 88.581272 
680.000000	 88.564821 
679.000000	 88.536316 
678.000000	 88.536411 
677.000000	 88.551844 
676.000000	 88.538884 
675.000000	 88.490720 
674.000000	 88.443672 
673.000000	 88.430440 
672.000000	 88.457934 
671.000000	 88.532204 
670.000000	 88.669380 
669.000000	 88.903117 
668.000000	 89.207726 
667.000000	 89.351315 
666.000000	 89.272691 
665.000000	 89.137683 
664.000000	 89.028410 
663.000000	 88.937070 
662.000000	 88.848056 
661.000000	 88.779211 
660.000000	 88.766146 
659.000000	 88.845858 
658.000000	 88.969541 
657.000000	 89.110454 
656.000000	 89.131363 
655.000000	 88.907142 
654.000000	 88.910214 
653.000000	 88.893992 
652.000000	 88.952289 
651.000000	 89.054969 
650.000000	 89.157927 

