PE IR                   SPECTRUM    ASCII       PEDS        1.60        
  -1
~SP.SP
18/03/14
13:50:52.00
18/03/14
13:50:52.00
pili

650.000000
4









SPECTRUM 100,CPU32 MAIN 00.02.8200 12-DECEMBER-2006 10:00:00
MIR TGS
MIR
OPTKBR
78890
0.200000

4.000000
STRONG
RATIO
SPECTRUM
MAGNITUDE
UNIVERSAL ATR
DOUBLE

COMBINED


0


#HDR
-1
-1
#GR
CM-1
%T
0.00002384185791015625
0.0
4000.000000
-1.000000
3351
8
99.273528
90.135169
#DATA
4000.000000	99.043417 
3999.000000	99.046014 
3998.000000	99.045164 
3997.000000	99.041687 
3996.000000	99.036944 
3995.000000	99.034728 
3994.000000	99.038156 
3993.000000	99.046651 
3992.000000	99.055684 
3991.000000	99.059666 
3990.000000	99.056244 
3989.000000	99.048441 
3988.000000	99.042346 
3987.000000	99.041935 
3986.000000	99.045495 
3985.000000	99.046814 
3984.000000	99.040598 
3983.000000	99.027728 
3982.000000	99.015317 
3981.000000	99.010735 
3980.000000	99.014714 
3979.000000	99.020827 
3978.000000	99.021873 
3977.000000	99.016190 
3976.000000	99.007558 
3975.000000	98.999871 
3974.000000	98.993410 
3973.000000	98.986169 
3972.000000	98.977633 
3971.000000	98.970654 
3970.000000	98.969796 
3969.000000	98.977856 
3968.000000	98.993295 
3967.000000	99.010720 
3966.000000	99.024555 
3965.000000	99.032849 
3964.000000	99.037550 
3963.000000	99.041511 
3962.000000	99.045565 
3961.000000	99.048320 
3960.000000	99.047982 
3959.000000	99.044004 
3958.000000	99.037073 
3957.000000	99.028572 
3956.000000	99.020480 
3955.000000	99.014949 
3954.000000	99.013101 
3953.000000	99.013325 
3952.000000	99.011741 
3951.000000	99.005957 
3950.000000	98.998862 
3949.000000	98.997623 
3948.000000	99.006493 
3947.000000	99.021040 
3946.000000	99.030892 
3945.000000	99.028181 
3944.000000	99.014058 
3943.000000	98.997753 
3942.000000	98.989126 
3941.000000	98.990717 
3940.000000	98.997067 
3939.000000	99.001047 
3938.000000	99.000203 
3937.000000	98.997594 
3936.000000	98.997452 
3935.000000	99.000580 
3934.000000	99.004978 
3933.000000	99.009407 
3932.000000	99.014656 
3931.000000	99.020216 
3930.000000	99.022628 
3929.000000	99.019527 
3928.000000	99.013044 
3927.000000	99.007730 
3926.000000	99.005832 
3925.000000	99.005004 
3924.000000	99.001461 
3923.000000	98.994647 
3922.000000	98.988127 
3921.000000	98.986973 
3920.000000	98.993170 
3919.000000	99.002772 
3918.000000	99.008138 
3917.000000	99.004893 
3916.000000	98.996371 
3915.000000	98.989857 
3914.000000	98.989531 
3913.000000	98.994369 
3912.000000	99.000908 
3911.000000	99.006762 
3910.000000	99.010597 
3909.000000	99.011369 
3908.000000	99.009126 
3907.000000	99.005337 
3906.000000	99.002130 
3905.000000	98.999929 
3904.000000	98.997658 
3903.000000	98.995430 
3902.000000	98.994988 
3901.000000	98.997328 
3900.000000	99.001159 
3899.000000	99.003404 
3898.000000	99.002440 
3897.000000	99.000347 
3896.000000	99.002171 
3895.000000	99.013505 
3894.000000	99.035213 
3893.000000	99.059168 
3892.000000	99.072422 
3891.000000	99.070269 
3890.000000	99.061315 
3889.000000	99.055312 
3888.000000	99.051664 
3887.000000	99.040618 
3886.000000	99.016959 
3885.000000	98.990351 
3884.000000	98.974884 
3883.000000	98.973444 
3882.000000	98.978035 
3881.000000	98.981356 
3880.000000	98.984957 
3879.000000	98.993537 
3878.000000	99.007446 
3877.000000	99.022718 
3876.000000	99.034259 
3875.000000	99.038847 
3874.000000	99.038411 
3873.000000	99.038414 
3872.000000	99.041069 
3871.000000	99.041593 
3870.000000	99.035873 
3869.000000	99.029900 
3868.000000	99.031066 
3867.000000	99.036510 
3866.000000	99.036507 
3865.000000	99.026406 
3864.000000	99.012871 
3863.000000	99.005512 
3862.000000	99.004942 
3861.000000	99.006219 
3860.000000	99.006444 
3859.000000	99.005876 
3858.000000	99.005751 
3857.000000	99.008409 
3856.000000	99.017113 
3855.000000	99.030678 
3854.000000	99.037456 
3853.000000	99.035121 
3852.000000	99.034648 
3851.000000	99.039251 
3850.000000	99.041683 
3849.000000	99.037167 
3848.000000	99.026693 
3847.000000	99.015067 
3846.000000	99.006793 
3845.000000	99.004871 
3844.000000	99.012081 
3843.000000	99.029743 
3842.000000	99.052964 
3841.000000	99.071132 
3840.000000	99.074407 
3839.000000	99.062561 
3838.000000	99.047020 
3837.000000	99.039962 
3836.000000	99.043714 
3835.000000	99.052261 
3834.000000	99.058230 
3833.000000	99.057871 
3832.000000	99.051505 
3831.000000	99.041867 
3830.000000	99.032005 
3829.000000	99.023568 
3828.000000	99.017122 
3827.000000	99.014339 
3826.000000	99.017614 
3825.000000	99.027614 
3824.000000	99.041161 
3823.000000	99.051181 
3822.000000	99.050379 
3821.000000	99.042078 
3820.000000	99.038987 
3819.000000	99.045105 
3818.000000	99.050729 
3817.000000	99.043218 
3816.000000	99.022255 
3815.000000	99.001594 
3814.000000	98.990980 
3813.000000	98.987415 
3812.000000	98.984823 
3811.000000	98.983354 
3810.000000	98.987584 
3809.000000	98.998479 
3808.000000	99.009210 
3807.000000	99.013437 
3806.000000	99.013585 
3805.000000	99.016118 
3804.000000	99.022919 
3803.000000	99.030988 
3802.000000	99.037381 
3801.000000	99.044375 
3800.000000	99.053468 
3799.000000	99.057712 
3798.000000	99.048779 
3797.000000	99.028315 
3796.000000	99.008625 
3795.000000	99.000001 
3794.000000	99.000469 
3793.000000	99.001256 
3792.000000	98.998009 
3791.000000	98.994151 
3790.000000	98.995245 
3789.000000	99.002916 
3788.000000	99.014447 
3787.000000	99.025045 
3786.000000	99.029505 
3785.000000	99.024438 
3784.000000	99.011092 
3783.000000	98.995214 
3782.000000	98.982626 
3781.000000	98.975326 
3780.000000	98.972160 
3779.000000	98.973687 
3778.000000	98.982073 
3777.000000	98.996147 
3776.000000	99.009436 
3775.000000	99.014621 
3774.000000	99.009327 
3773.000000	98.997516 
3772.000000	98.985586 
3771.000000	98.977491 
3770.000000	98.973219 
3769.000000	98.970895 
3768.000000	98.969075 
3767.000000	98.967672 
3766.000000	98.969346 
3765.000000	98.978253 
3764.000000	98.995733 
3763.000000	99.017801 
3762.000000	99.036630 
3761.000000	99.044954 
3760.000000	99.040430 
3759.000000	99.027919 
3758.000000	99.015108 
3757.000000	99.007024 
3756.000000	99.004475 
3755.000000	99.004193 
3754.000000	99.000680 
3753.000000	98.991713 
3752.000000	98.983504 
3751.000000	98.985665 
3750.000000	98.998655 
3749.000000	99.012608 
3748.000000	99.021506 
3747.000000	99.027534 
3746.000000	99.031999 
3745.000000	99.028166 
3744.000000	99.014204 
3743.000000	98.996858 
3742.000000	98.979318 
3741.000000	98.961451 
3740.000000	98.946761 
3739.000000	98.942035 
3738.000000	98.950199 
3737.000000	98.964133 
3736.000000	98.974290 
3735.000000	98.979392 
3734.000000	98.982061 
3733.000000	98.980201 
3732.000000	98.971042 
3731.000000	98.957399 
3730.000000	98.944700 
3729.000000	98.934757 
3728.000000	98.926017 
3727.000000	98.917810 
3726.000000	98.912964 
3725.000000	98.914956 
3724.000000	98.924247 
3723.000000	98.938818 
3722.000000	98.955524 
3721.000000	98.970706 
3720.000000	98.979639 
3719.000000	98.979228 
3718.000000	98.971631 
3717.000000	98.963006 
3716.000000	98.959543 
3715.000000	98.963955 
3714.000000	98.975797 
3713.000000	98.993718 
3712.000000	99.014640 
3711.000000	99.033555 
3710.000000	99.044081 
3709.000000	99.042659 
3708.000000	99.032612 
3707.000000	99.020859 
3706.000000	99.012712 
3705.000000	99.008642 
3704.000000	99.004809 
3703.000000	98.997148 
3702.000000	98.985576 
3701.000000	98.974980 
3700.000000	98.969916 
3699.000000	98.969402 
3698.000000	98.968647 
3697.000000	98.963832 
3696.000000	98.955764 
3695.000000	98.948868 
3694.000000	98.947273 
3693.000000	98.953224 
3692.000000	98.966911 
3691.000000	98.985254 
3690.000000	99.000107 
3689.000000	99.005442 
3688.000000	99.006052 
3687.000000	99.010456 
3686.000000	99.019157 
3685.000000	99.024052 
3684.000000	99.016261 
3683.000000	98.994909 
3682.000000	98.969270 
3681.000000	98.951214 
3680.000000	98.947552 
3679.000000	98.957699 
3678.000000	98.975127 
3677.000000	98.988373 
3676.000000	98.986878 
3675.000000	98.977203 
3674.000000	98.974048 
3673.000000	98.979780 
3672.000000	98.985556 
3671.000000	98.983884 
3670.000000	98.976872 
3669.000000	98.973701 
3668.000000	98.975927 
3667.000000	98.976576 
3666.000000	98.973102 
3665.000000	98.971295 
3664.000000	98.977692 
3663.000000	98.990637 
3662.000000	98.999796 
3661.000000	98.995523 
3660.000000	98.978785 
3659.000000	98.960560 
3658.000000	98.953584 
3657.000000	98.962827 
3656.000000	98.983396 
3655.000000	99.005725 
3654.000000	99.021183 
3653.000000	99.025028 
3652.000000	99.016790 
3651.000000	99.000125 
3650.000000	98.979843 
3649.000000	98.959136 
3648.000000	98.940158 
3647.000000	98.926874 
3646.000000	98.924318 
3645.000000	98.934183 
3644.000000	98.951723 
3643.000000	98.968635 
3642.000000	98.979257 
3641.000000	98.983536 
3640.000000	98.984562 
3639.000000	98.983816 
3638.000000	98.981374 
3637.000000	98.978463 
3636.000000	98.977221 
3635.000000	98.978124 
3634.000000	98.978945 
3633.000000	98.976640 
3632.000000	98.968516 
3631.000000	98.951429 
3630.000000	98.924561 
3629.000000	98.898808 
3628.000000	98.892581 
3627.000000	98.907865 
3626.000000	98.928510 
3625.000000	98.939775 
3624.000000	98.940492 
3623.000000	98.942216 
3622.000000	98.958089 
3621.000000	98.988816 
3620.000000	99.018057 
3619.000000	99.026836 
3618.000000	99.012276 
3617.000000	98.985787 
3616.000000	98.958774 
3615.000000	98.935485 
3614.000000	98.914691 
3613.000000	98.895473 
3612.000000	98.880260 
3611.000000	98.872430 
3610.000000	98.873150 
3609.000000	98.880117 
3608.000000	98.888250 
3607.000000	98.892789 
3606.000000	98.892347 
3605.000000	98.889962 
3604.000000	98.890988 
3603.000000	98.898848 
3602.000000	98.912784 
3601.000000	98.928899 
3600.000000	98.942756 
3599.000000	98.950964 
3598.000000	98.952102 
3597.000000	98.946760 
3596.000000	98.937801 
3595.000000	98.928520 
3594.000000	98.920369 
3593.000000	98.913742 
3592.000000	98.910585 
3591.000000	98.914118 
3590.000000	98.925341 
3589.000000	98.939662 
3588.000000	98.949401 
3587.000000	98.951237 
3586.000000	98.947948 
3585.000000	98.942845 
3584.000000	98.937811 
3583.000000	98.934512 
3582.000000	98.935275 
3581.000000	98.940731 
3580.000000	98.948823 
3579.000000	98.957038 
3578.000000	98.965058 
3577.000000	98.974234 
3576.000000	98.984517 
3575.000000	98.993673 
3574.000000	98.998869 
3573.000000	98.999281 
3572.000000	98.996415 
3571.000000	98.991765 
3570.000000	98.984249 
3569.000000	98.971284 
3568.000000	98.954300 
3567.000000	98.941505 
3566.000000	98.939735 
3565.000000	98.945706 
3564.000000	98.950907 
3563.000000	98.951386 
3562.000000	98.949719 
3561.000000	98.949254 
3560.000000	98.949314 
3559.000000	98.947563 
3558.000000	98.945447 
3557.000000	98.948351 
3556.000000	98.959703 
3555.000000	98.976495 
3554.000000	98.990858 
3553.000000	98.995759 
3552.000000	98.989668 
3551.000000	98.975872 
3550.000000	98.958898 
3549.000000	98.943210 
3548.000000	98.934330 
3547.000000	98.936956 
3546.000000	98.949269 
3545.000000	98.961257 
3544.000000	98.963836 
3543.000000	98.958942 
3542.000000	98.956928 
3541.000000	98.963669 
3540.000000	98.972874 
3539.000000	98.972770 
3538.000000	98.959953 
3537.000000	98.943647 
3536.000000	98.935830 
3535.000000	98.938965 
3534.000000	98.946431 
3533.000000	98.952166 
3532.000000	98.956002 
3531.000000	98.959183 
3530.000000	98.958399 
3529.000000	98.948120 
3528.000000	98.929083 
3527.000000	98.911003 
3526.000000	98.904477 
3525.000000	98.911666 
3524.000000	98.926148 
3523.000000	98.941016 
3522.000000	98.955010 
3521.000000	98.970054 
3520.000000	98.984641 
3519.000000	98.991925 
3518.000000	98.986203 
3517.000000	98.970929 
3516.000000	98.958437 
3515.000000	98.959394 
3514.000000	98.972087 
3513.000000	98.983424 
3512.000000	98.981458 
3511.000000	98.966376 
3510.000000	98.948835 
3509.000000	98.938156 
3508.000000	98.934279 
3507.000000	98.931108 
3506.000000	98.925255 
3505.000000	98.919614 
3504.000000	98.919824 
3503.000000	98.927697 
3502.000000	98.938711 
3501.000000	98.946218 
3500.000000	98.947295 
3499.000000	98.943709 
3498.000000	98.938259 
3497.000000	98.932486 
3496.000000	98.928128 
3495.000000	98.928194 
3494.000000	98.934005 
3493.000000	98.942201 
3492.000000	98.947569 
3491.000000	98.948445 
3490.000000	98.947060 
3489.000000	98.944534 
3488.000000	98.938664 
3487.000000	98.928281 
3486.000000	98.917174 
3485.000000	98.910932 
3484.000000	98.911082 
3483.000000	98.914473 
3482.000000	98.918031 
3481.000000	98.921877 
3480.000000	98.927157 
3479.000000	98.932787 
3478.000000	98.936062 
3477.000000	98.936080 
3476.000000	98.935124 
3475.000000	98.936087 
3474.000000	98.938931 
3473.000000	98.940822 
3472.000000	98.939907 
3471.000000	98.937747 
3470.000000	98.936928 
3469.000000	98.937295 
3468.000000	98.936268 
3467.000000	98.932785 
3466.000000	98.929307 
3465.000000	98.929325 
3464.000000	98.934248 
3463.000000	98.942713 
3462.000000	98.951156 
3461.000000	98.954853 
3460.000000	98.951087 
3459.000000	98.943110 
3458.000000	98.939018 
3457.000000	98.943865 
3456.000000	98.953932 
3455.000000	98.960518 
3454.000000	98.959065 
3453.000000	98.952148 
3452.000000	98.944013 
3451.000000	98.935368 
3450.000000	98.924578 
3449.000000	98.912223 
3448.000000	98.902686 
3447.000000	98.901549 
3446.000000	98.911691 
3445.000000	98.931404 
3444.000000	98.955110 
3443.000000	98.975549 
3442.000000	98.986933 
3441.000000	98.988002 
3440.000000	98.982625 
3439.000000	98.976570 
3438.000000	98.972723 
3437.000000	98.969145 
3436.000000	98.962350 
3435.000000	98.951672 
3434.000000	98.939390 
3433.000000	98.927196 
3432.000000	98.914684 
3431.000000	98.902194 
3430.000000	98.893041 
3429.000000	98.891280 
3428.000000	98.897426 
3427.000000	98.907195 
3426.000000	98.914594 
3425.000000	98.916379 
3424.000000	98.914179 
3423.000000	98.912282 
3422.000000	98.912982 
3421.000000	98.914913 
3420.000000	98.917142 
3419.000000	98.922858 
3418.000000	98.935359 
3417.000000	98.950232 
3416.000000	98.955851 
3415.000000	98.944869 
3414.000000	98.923772 
3413.000000	98.908112 
3412.000000	98.907947 
3411.000000	98.919357 
3410.000000	98.929549 
3409.000000	98.928626 
3408.000000	98.917115 
3407.000000	98.904624 
3406.000000	98.902023 
3405.000000	98.913465 
3404.000000	98.934024 
3403.000000	98.953851 
3402.000000	98.964548 
3401.000000	98.963091 
3400.000000	98.952514 
3399.000000	98.940462 
3398.000000	98.935097 
3397.000000	98.939036 
3396.000000	98.946551 
3395.000000	98.948579 
3394.000000	98.941548 
3393.000000	98.930798 
3392.000000	98.925571 
3391.000000	98.931329 
3390.000000	98.946327 
3389.000000	98.963171 
3388.000000	98.972961 
3387.000000	98.970543 
3386.000000	98.958746 
3385.000000	98.946958 
3384.000000	98.943189 
3383.000000	98.946739 
3382.000000	98.949644 
3381.000000	98.945177 
3380.000000	98.933466 
3379.000000	98.918969 
3378.000000	98.904793 
3377.000000	98.891708 
3376.000000	98.881721 
3375.000000	98.879559 
3374.000000	98.888847 
3373.000000	98.907563 
3372.000000	98.928524 
3371.000000	98.944738 
3370.000000	98.953979 
3369.000000	98.958358 
3368.000000	98.960111 
3367.000000	98.958584 
3366.000000	98.951796 
3365.000000	98.940656 
3364.000000	98.930202 
3363.000000	98.925274 
3362.000000	98.925478 
3361.000000	98.926367 
3360.000000	98.925677 
3359.000000	98.925688 
3358.000000	98.927976 
3357.000000	98.928665 
3356.000000	98.922545 
3355.000000	98.910964 
3354.000000	98.901348 
3353.000000	98.897928 
3352.000000	98.896625 
3351.000000	98.891478 
3350.000000	98.883895 
3349.000000	98.882333 
3348.000000	98.893202 
3347.000000	98.914172 
3346.000000	98.936788 
3345.000000	98.953822 
3344.000000	98.962953 
3343.000000	98.964328 
3342.000000	98.956934 
3341.000000	98.940004 
3340.000000	98.918482 
3339.000000	98.904055 
3338.000000	98.906496 
3337.000000	98.923137 
3336.000000	98.939805 
3335.000000	98.943926 
3334.000000	98.934951 
3333.000000	98.921031 
3332.000000	98.908968 
3331.000000	98.900443 
3330.000000	98.895903 
3329.000000	98.897247 
3328.000000	98.905452 
3327.000000	98.918105 
3326.000000	98.930974 
3325.000000	98.940892 
3324.000000	98.946295 
3323.000000	98.946326 
3322.000000	98.941066 
3321.000000	98.932587 
3320.000000	98.924621 
3319.000000	98.920303 
3318.000000	98.920086 
3317.000000	98.922116 
3316.000000	98.924643 
3315.000000	98.927333 
3314.000000	98.929567 
3313.000000	98.928374 
3312.000000	98.920088 
3311.000000	98.904693 
3310.000000	98.887318 
3309.000000	98.874474 
3308.000000	98.869182 
3307.000000	98.869823 
3306.000000	98.872774 
3305.000000	98.875995 
3304.000000	98.881084 
3303.000000	98.891490 
3302.000000	98.906850 
3301.000000	98.919298 
3300.000000	98.918859 
3299.000000	98.904338 
3298.000000	98.886447 
3297.000000	98.877796 
3296.000000	98.881304 
3295.000000	98.890377 
3294.000000	98.898034 
3293.000000	98.902453 
3292.000000	98.905088 
3291.000000	98.907393 
3290.000000	98.909965 
3289.000000	98.912170 
3288.000000	98.912169 
3287.000000	98.909498 
3286.000000	98.907578 
3285.000000	98.911130 
3284.000000	98.920673 
3283.000000	98.932035 
3282.000000	98.941510 
3281.000000	98.948496 
3280.000000	98.952256 
3279.000000	98.949930 
3278.000000	98.940776 
3277.000000	98.930012 
3276.000000	98.924498 
3275.000000	98.924818 
3274.000000	98.925030 
3273.000000	98.921331 
3272.000000	98.918077 
3271.000000	98.922385 
3270.000000	98.933586 
3269.000000	98.941304 
3268.000000	98.936049 
3267.000000	98.920403 
3266.000000	98.907008 
3265.000000	98.905169 
3264.000000	98.911710 
3263.000000	98.916253 
3262.000000	98.913062 
3261.000000	98.905299 
3260.000000	98.899422 
3259.000000	98.898735 
3258.000000	98.902297 
3257.000000	98.907072 
3256.000000	98.910404 
3255.000000	98.912520 
3254.000000	98.917218 
3253.000000	98.927808 
3252.000000	98.941808 
3251.000000	98.951922 
3250.000000	98.953081 
3249.000000	98.946299 
3248.000000	98.934852 
3247.000000	98.920142 
3246.000000	98.903996 
3245.000000	98.892200 
3244.000000	98.890974 
3243.000000	98.899746 
3242.000000	98.910905 
3241.000000	98.917721 
3240.000000	98.920026 
3239.000000	98.920930 
3238.000000	98.920119 
3237.000000	98.913146 
3236.000000	98.897712 
3235.000000	98.879148 
3234.000000	98.868527 
3233.000000	98.874538 
3232.000000	98.896311 
3231.000000	98.923549 
3230.000000	98.943828 
3229.000000	98.950843 
3228.000000	98.946946 
3227.000000	98.938918 
3226.000000	98.931888 
3225.000000	98.926965 
3224.000000	98.923391 
3223.000000	98.921376 
3222.000000	98.921770 
3221.000000	98.923553 
3220.000000	98.923399 
3219.000000	98.919214 
3218.000000	98.913685 
3217.000000	98.912914 
3216.000000	98.920864 
3215.000000	98.935267 
3214.000000	98.948946 
3213.000000	98.954981 
3212.000000	98.951278 
3211.000000	98.941468 
3210.000000	98.931922 
3209.000000	98.927202 
3208.000000	98.927563 
3207.000000	98.930418 
3206.000000	98.933476 
3205.000000	98.936018 
3204.000000	98.937756 
3203.000000	98.937753 
3202.000000	98.934772 
3201.000000	98.928459 
3200.000000	98.920488 
3199.000000	98.914762 
3198.000000	98.915153 
3197.000000	98.921389 
3196.000000	98.927878 
3195.000000	98.928653 
3194.000000	98.923721 
3193.000000	98.918883 
3192.000000	98.919257 
3191.000000	98.924899 
3190.000000	98.932928 
3189.000000	98.941041 
3188.000000	98.946878 
3187.000000	98.946521 
3186.000000	98.937448 
3185.000000	98.923274 
3184.000000	98.912611 
3183.000000	98.911476 
3182.000000	98.917806 
3181.000000	98.924453 
3180.000000	98.926795 
3179.000000	98.926148 
3178.000000	98.925760 
3177.000000	98.925153 
3176.000000	98.920421 
3175.000000	98.910481 
3174.000000	98.901328 
3173.000000	98.901935 
3172.000000	98.915378 
3171.000000	98.935076 
3170.000000	98.950566 
3169.000000	98.956416 
3168.000000	98.955038 
3167.000000	98.952170 
3166.000000	98.951376 
3165.000000	98.952861 
3164.000000	98.955513 
3163.000000	98.958504 
3162.000000	98.961370 
3161.000000	98.963971 
3160.000000	98.966754 
3159.000000	98.970106 
3158.000000	98.972890 
3157.000000	98.972560 
3156.000000	98.967835 
3155.000000	98.960766 
3154.000000	98.954851 
3153.000000	98.951032 
3152.000000	98.946828 
3151.000000	98.939899 
3150.000000	98.931529 
3149.000000	98.925980 
3148.000000	98.926751 
3147.000000	98.933129 
3146.000000	98.939388 
3145.000000	98.938008 
3144.000000	98.926219 
3143.000000	98.910218 
3142.000000	98.900741 
3141.000000	98.902640 
3140.000000	98.910169 
3139.000000	98.913973 
3138.000000	98.911104 
3137.000000	98.905979 
3136.000000	98.903079 
3135.000000	98.902219 
3134.000000	98.901280 
3133.000000	98.900644 
3132.000000	98.903648 
3131.000000	98.913860 
3130.000000	98.931996 
3129.000000	98.953713 
3128.000000	98.970477 
3127.000000	98.975378 
3126.000000	98.969407 
3125.000000	98.960504 
3124.000000	98.955682 
3123.000000	98.955506 
3122.000000	98.956601 
3121.000000	98.956925 
3120.000000	98.956736 
3119.000000	98.956210 
3118.000000	98.954901 
3117.000000	98.953490 
3116.000000	98.954020 
3115.000000	98.957520 
3114.000000	98.962190 
3113.000000	98.964504 
3112.000000	98.962395 
3111.000000	98.957511 
3110.000000	98.953935 
3109.000000	98.953777 
3108.000000	98.954122 
3107.000000	98.949834 
3106.000000	98.940133 
3105.000000	98.931381 
3104.000000	98.931706 
3103.000000	98.942425 
3102.000000	98.955273 
3101.000000	98.958987 
3100.000000	98.949434 
3099.000000	98.933464 
3098.000000	98.922801 
3097.000000	98.924183 
3096.000000	98.935159 
3095.000000	98.948402 
3094.000000	98.958435 
3093.000000	98.963689 
3092.000000	98.964540 
3091.000000	98.962417 
3090.000000	98.960743 
3089.000000	98.963655 
3088.000000	98.971684 
3087.000000	98.979562 
3086.000000	98.980101 
3085.000000	98.970832 
3084.000000	98.956238 
3083.000000	98.943391 
3082.000000	98.935884 
3081.000000	98.932341 
3080.000000	98.930383 
3079.000000	98.930581 
3078.000000	98.935286 
3077.000000	98.944059 
3076.000000	98.952389 
3075.000000	98.956008 
3074.000000	98.955358 
3073.000000	98.954741 
3072.000000	98.957753 
3071.000000	98.964448 
3070.000000	98.971892 
3069.000000	98.976340 
3068.000000	98.976009 
3067.000000	98.973386 
3066.000000	98.973876 
3065.000000	98.980188 
3064.000000	98.988507 
3063.000000	98.992443 
3062.000000	98.990630 
3061.000000	98.988068 
3060.000000	98.989520 
3059.000000	98.993724 
3058.000000	98.995443 
3057.000000	98.991740 
3056.000000	98.984801 
3055.000000	98.979141 
3054.000000	98.977302 
3053.000000	98.978390 
3052.000000	98.980056 
3051.000000	98.981356 
3050.000000	98.982961 
3049.000000	98.984583 
3048.000000	98.983696 
3047.000000	98.978357 
3046.000000	98.970359 
3045.000000	98.963654 
3044.000000	98.960091 
3043.000000	98.959010 
3042.000000	98.960699 
3041.000000	98.966926 
3040.000000	98.976793 
3039.000000	98.984850 
3038.000000	98.985820 
3037.000000	98.980013 
3036.000000	98.972296 
3035.000000	98.966910 
3034.000000	98.965050 
3033.000000	98.966333 
3032.000000	98.970150 
3031.000000	98.975394 
3030.000000	98.980533 
3029.000000	98.984462 
3028.000000	98.986622 
3027.000000	98.986379 
3026.000000	98.982798 
3025.000000	98.974987 
3024.000000	98.963069 
3023.000000	98.950090 
3022.000000	98.942665 
3021.000000	98.946923 
3020.000000	98.961749 
3019.000000	98.977630 
3018.000000	98.984701 
3017.000000	98.981835 
3016.000000	98.976483 
3015.000000	98.976483 
3014.000000	98.984027 
3013.000000	98.996296 
3012.000000	99.008500 
3011.000000	99.015511 
3010.000000	99.013444 
3009.000000	99.002088 
3008.000000	98.985441 
3007.000000	98.969068 
3006.000000	98.957087 
3005.000000	98.951549 
3004.000000	98.953041 
3003.000000	98.960333 
3002.000000	98.969303 
3001.000000	98.973337 
3000.000000	98.966480 
2999.000000	98.948205 
2998.000000	98.925830 
2997.000000	98.910562 
2996.000000	98.908984 
2995.000000	98.918258 
2994.000000	98.930877 
2993.000000	98.943248 
2992.000000	98.957323 
2991.000000	98.974360 
2990.000000	98.990848 
2989.000000	99.002455 
2988.000000	99.009171 
2987.000000	99.013468 
2986.000000	99.014921 
2985.000000	99.010252 
2984.000000	98.998864 
2983.000000	98.985207 
2982.000000	98.974307 
2981.000000	98.966964 
2980.000000	98.960779 
2979.000000	98.954335 
2978.000000	98.948437 
2977.000000	98.944183 
2976.000000	98.942136 
2975.000000	98.943331 
2974.000000	98.948750 
2973.000000	98.956649 
2972.000000	98.961998 
2971.000000	98.960560 
2970.000000	98.953490 
2969.000000	98.946552 
2968.000000	98.944345 
2967.000000	98.945963 
2966.000000	98.946765 
2965.000000	98.943634 
2964.000000	98.937706 
2963.000000	98.932332 
2962.000000	98.929626 
2961.000000	98.929624 
2960.000000	98.931903 
2959.000000	98.936237 
2958.000000	98.940963 
2957.000000	98.942348 
2956.000000	98.938112 
2955.000000	98.931964 
2954.000000	98.932083 
2953.000000	98.942343 
2952.000000	98.955522 
2951.000000	98.957829 
2950.000000	98.941715 
2949.000000	98.913813 
2948.000000	98.889736 
2947.000000	98.881766 
2946.000000	98.891279 
2945.000000	98.910932 
2944.000000	98.931478 
2943.000000	98.946337 
2942.000000	98.952299 
2941.000000	98.948933 
2940.000000	98.938717 
2939.000000	98.926599 
2938.000000	98.917091 
2937.000000	98.910487 
2936.000000	98.902883 
2935.000000	98.891235 
2934.000000	98.877740 
2933.000000	98.867628 
2932.000000	98.863096 
2931.000000	98.861698 
2930.000000	98.860997 
2929.000000	98.861913 
2928.000000	98.865661 
2927.000000	98.869657 
2926.000000	98.869796 
2925.000000	98.866329 
2924.000000	98.864295 
2923.000000	98.867139 
2922.000000	98.872274 
2921.000000	98.874587 
2920.000000	98.873142 
2919.000000	98.872549 
2918.000000	98.877676 
2917.000000	98.887993 
2916.000000	98.897604 
2915.000000	98.900781 
2914.000000	98.897680 
2913.000000	98.894576 
2912.000000	98.898108 
2911.000000	98.908874 
2910.000000	98.920771 
2909.000000	98.926739 
2908.000000	98.925040 
2907.000000	98.919770 
2906.000000	98.915896 
2905.000000	98.914580 
2904.000000	98.913652 
2903.000000	98.911403 
2902.000000	98.909396 
2901.000000	98.910046 
2900.000000	98.913302 
2899.000000	98.916374 
2898.000000	98.916576 
2897.000000	98.914131 
2896.000000	98.911971 
2895.000000	98.913625 
2894.000000	98.921148 
2893.000000	98.933716 
2892.000000	98.947477 
2891.000000	98.957757 
2890.000000	98.962582 
2889.000000	98.963869 
2888.000000	98.964706 
2887.000000	98.966181 
2886.000000	98.967562 
2885.000000	98.968354 
2884.000000	98.968591 
2883.000000	98.967806 
2882.000000	98.965744 
2881.000000	98.964087 
2880.000000	98.965421 
2879.000000	98.969854 
2878.000000	98.974388 
2877.000000	98.976412 
2876.000000	98.976124 
2875.000000	98.974437 
2874.000000	98.970344 
2873.000000	98.962516 
2872.000000	98.952677 
2871.000000	98.945149 
2870.000000	98.942714 
2869.000000	98.944267 
2868.000000	98.946679 
2867.000000	98.947813 
2866.000000	98.947563 
2865.000000	98.947111 
2864.000000	98.947633 
2863.000000	98.949038 
2862.000000	98.949687 
2861.000000	98.947819 
2860.000000	98.943250 
2859.000000	98.937234 
2858.000000	98.931320 
2857.000000	98.927281 
2856.000000	98.927095 
2855.000000	98.930813 
2854.000000	98.934525 
2853.000000	98.933196 
2852.000000	98.926828 
2851.000000	98.922021 
2850.000000	98.925478 
2849.000000	98.936896 
2848.000000	98.949916 
2847.000000	98.959266 
2846.000000	98.964923 
2845.000000	98.969406 
2844.000000	98.973342 
2843.000000	98.975078 
2842.000000	98.973769 
2841.000000	98.971633 
2840.000000	98.972846 
2839.000000	98.980076 
2838.000000	98.991847 
2837.000000	99.003319 
2836.000000	99.010067 
2835.000000	99.011043 
2834.000000	99.007852 
2833.000000	99.002096 
2832.000000	98.994616 
2831.000000	98.986895 
2830.000000	98.981434 
2829.000000	98.980014 
2828.000000	98.982519 
2827.000000	98.988041 
2826.000000	98.996115 
2825.000000	99.005821 
2824.000000	99.014372 
2823.000000	99.018157 
2822.000000	99.015710 
2821.000000	99.008973 
2820.000000	99.001183 
2819.000000	98.993809 
2818.000000	98.986001 
2817.000000	98.976932 
2816.000000	98.968245 
2815.000000	98.963826 
2814.000000	98.966900 
2813.000000	98.977117 
2812.000000	98.990168 
2811.000000	99.000394 
2810.000000	99.004577 
2809.000000	99.004112 
2808.000000	99.003591 
2807.000000	99.006534 
2806.000000	99.012042 
2805.000000	99.015893 
2804.000000	99.015077 
2803.000000	99.010812 
2802.000000	99.006982 
2801.000000	99.006335 
2800.000000	99.008669 
2799.000000	99.011990 
2798.000000	99.014655 
2797.000000	99.016729 
2796.000000	99.019720 
2795.000000	99.024279 
2794.000000	99.027576 
2793.000000	99.024137 
2792.000000	99.011063 
2791.000000	98.992297 
2790.000000	98.976250 
2789.000000	98.968988 
2788.000000	98.970617 
2787.000000	98.977948 
2786.000000	98.988599 
2785.000000	99.001493 
2784.000000	99.014648 
2783.000000	99.024259 
2782.000000	99.026873 
2781.000000	99.022827 
2780.000000	99.017377 
2779.000000	99.016970 
2778.000000	99.022874 
2777.000000	99.029227 
2776.000000	99.029122 
2775.000000	99.022347 
2774.000000	99.015037 
2773.000000	99.011941 
2772.000000	99.011789 
2771.000000	99.011007 
2770.000000	99.009036 
2769.000000	99.008017 
2768.000000	99.009336 
2767.000000	99.012822 
2766.000000	99.017985 
2765.000000	99.023706 
2764.000000	99.027511 
2763.000000	99.027304 
2762.000000	99.023457 
2761.000000	99.017809 
2760.000000	99.011789 
2759.000000	99.007507 
2758.000000	99.009190 
2757.000000	99.019939 
2756.000000	99.036523 
2755.000000	99.050188 
2754.000000	99.053905 
2753.000000	99.047459 
2752.000000	99.035337 
2751.000000	99.022060 
2750.000000	99.010710 
2749.000000	99.003556 
2748.000000	99.001518 
2747.000000	99.003238 
2746.000000	99.005983 
2745.000000	99.007438 
2744.000000	99.006493 
2743.000000	99.003486 
2742.000000	99.000724 
2741.000000	99.001702 
2740.000000	99.008115 
2739.000000	99.017339 
2738.000000	99.023714 
2737.000000	99.022898 
2736.000000	99.015576 
2735.000000	99.007546 
2734.000000	99.005847 
2733.000000	99.013053 
2732.000000	99.024205 
2731.000000	99.030297 
2730.000000	99.026114 
2729.000000	99.014803 
2728.000000	99.004341 
2727.000000	99.000231 
2726.000000	99.002349 
2725.000000	99.007795 
2724.000000	99.014706 
2723.000000	99.022631 
2722.000000	99.030479 
2721.000000	99.035501 
2720.000000	99.034735 
2719.000000	99.027614 
2718.000000	99.017494 
2717.000000	99.010403 
2716.000000	99.011098 
2715.000000	99.018949 
2714.000000	99.027450 
2713.000000	99.028865 
2712.000000	99.020938 
2711.000000	99.009614 
2710.000000	99.004325 
2709.000000	99.009434 
2708.000000	99.020254 
2707.000000	99.028018 
2706.000000	99.028642 
2705.000000	99.025814 
2704.000000	99.025628 
2703.000000	99.029777 
2702.000000	99.034939 
2701.000000	99.037708 
2700.000000	99.038353 
2699.000000	99.039501 
2698.000000	99.042268 
2697.000000	99.044429 
2696.000000	99.042193 
2695.000000	99.033659 
2694.000000	99.020919 
2693.000000	99.009015 
2692.000000	99.002475 
2691.000000	99.002377 
2690.000000	99.006428 
2689.000000	99.011683 
2688.000000	99.016963 
2687.000000	99.022568 
2686.000000	99.027895 
2685.000000	99.030008 
2684.000000	99.025533 
2683.000000	99.014650 
2682.000000	99.002718 
2681.000000	98.996678 
2680.000000	98.999216 
2679.000000	99.006821 
2678.000000	99.013618 
2677.000000	99.016156 
2676.000000	99.014292 
2675.000000	99.009356 
2674.000000	99.003641 
2673.000000	99.001055 
2672.000000	99.005350 
2671.000000	99.016217 
2670.000000	99.028306 
2669.000000	99.035549 
2668.000000	99.036165 
2667.000000	99.032860 
2666.000000	99.029250 
2665.000000	99.027395 
2664.000000	99.028060 
2663.000000	99.031163 
2662.000000	99.035095 
2661.000000	99.036651 
2660.000000	99.032731 
2659.000000	99.022329 
2658.000000	99.007287 
2657.000000	98.991954 
2656.000000	98.981861 
2655.000000	98.980963 
2654.000000	98.988625 
2653.000000	98.999404 
2652.000000	99.006495 
2651.000000	99.005753 
2650.000000	98.997129 
2649.000000	98.983935 
2648.000000	98.971687 
2647.000000	98.966267 
2646.000000	98.970762 
2645.000000	98.983211 
2644.000000	98.998034 
2643.000000	99.009981 
2642.000000	99.016595 
2641.000000	99.017712 
2640.000000	99.014179 
2639.000000	99.007656 
2638.000000	99.000793 
2637.000000	98.996665 
2636.000000	98.997524 
2635.000000	99.003354 
2634.000000	99.011112 
2633.000000	99.016251 
2632.000000	99.016500 
2631.000000	99.014174 
2630.000000	99.013401 
2629.000000	99.014785 
2628.000000	99.013973 
2627.000000	99.006081 
2626.000000	98.990711 
2625.000000	98.972355 
2624.000000	98.957036 
2623.000000	98.949034 
2622.000000	98.949634 
2621.000000	98.957684 
2620.000000	98.971201 
2619.000000	98.988174 
2618.000000	99.005142 
2617.000000	99.016178 
2616.000000	99.016688 
2615.000000	99.009823 
2614.000000	99.006322 
2613.000000	99.014480 
2612.000000	99.030482 
2611.000000	99.041560 
2610.000000	99.039466 
2609.000000	99.028847 
2608.000000	99.021328 
2607.000000	99.022854 
2606.000000	99.028443 
2605.000000	99.028849 
2604.000000	99.020586 
2603.000000	99.008403 
2602.000000	98.998527 
2601.000000	98.991249 
2600.000000	98.981688 
2599.000000	98.967521 
2598.000000	98.953799 
2597.000000	98.948680 
2596.000000	98.955205 
2595.000000	98.968521 
2594.000000	98.980801 
2593.000000	98.987805 
2592.000000	98.990906 
2591.000000	98.993880 
2590.000000	98.998168 
2589.000000	99.001336 
2588.000000	99.000541 
2587.000000	98.996919 
2586.000000	98.994494 
2585.000000	98.994000 
2584.000000	98.990423 
2583.000000	98.979544 
2582.000000	98.965749 
2581.000000	98.960081 
2580.000000	98.969848 
2579.000000	98.991628 
2578.000000	99.013968 
2577.000000	99.024979 
2576.000000	99.018784 
2575.000000	98.999117 
2574.000000	98.978044 
2573.000000	98.967571 
2572.000000	98.969581 
2571.000000	98.975459 
2570.000000	98.976852 
2569.000000	98.974324 
2568.000000	98.973633 
2567.000000	98.976816 
2566.000000	98.980918 
2565.000000	98.983720 
2564.000000	98.986079 
2563.000000	98.988750 
2562.000000	98.991225 
2561.000000	98.994646 
2560.000000	99.001760 
2559.000000	99.011815 
2558.000000	99.018597 
2557.000000	99.016572 
2556.000000	99.007365 
2555.000000	98.997604 
2554.000000	98.991791 
2553.000000	98.990118 
2552.000000	98.992172 
2551.000000	98.998767 
2550.000000	99.008850 
2549.000000	99.017592 
2548.000000	99.020396 
2547.000000	99.018508 
2546.000000	99.018630 
2545.000000	99.025767 
2544.000000	99.036400 
2543.000000	99.039558 
2542.000000	99.026238 
2541.000000	98.999309 
2540.000000	98.973860 
2539.000000	98.965791 
2538.000000	98.978283 
2537.000000	98.999089 
2536.000000	99.011615 
2535.000000	99.009308 
2534.000000	98.999883 
2533.000000	98.996278 
2532.000000	99.003948 
2531.000000	99.016870 
2530.000000	99.025030 
2529.000000	99.024310 
2528.000000	99.018265 
2527.000000	99.011742 
2526.000000	99.005597 
2525.000000	98.998298 
2524.000000	98.990225 
2523.000000	98.984534 
2522.000000	98.984899 
2521.000000	98.993370 
2520.000000	99.008310 
2519.000000	99.022668 
2518.000000	99.027086 
2517.000000	99.018765 
2516.000000	99.006447 
2515.000000	99.002671 
2514.000000	99.011001 
2513.000000	99.023991 
2512.000000	99.032950 
2511.000000	99.035071 
2510.000000	99.030870 
2509.000000	99.021033 
2508.000000	99.008925 
2507.000000	99.000786 
2506.000000	98.998342 
2505.000000	98.994638 
2504.000000	98.983062 
2503.000000	98.968993 
2502.000000	98.966428 
2501.000000	98.982168 
2500.000000	99.007386 
2499.000000	99.026139 
2498.000000	99.029484 
2497.000000	99.020712 
2496.000000	99.010104 
2495.000000	99.006336 
2494.000000	99.010754 
2493.000000	99.017605 
2492.000000	99.019841 
2491.000000	99.015408 
2490.000000	99.008124 
2489.000000	99.003412 
2488.000000	99.004325 
2487.000000	99.010899 
2486.000000	99.021227 
2485.000000	99.032421 
2484.000000	99.041268 
2483.000000	99.044620 
2482.000000	99.040372 
2481.000000	99.030363 
2480.000000	99.022377 
2479.000000	99.025462 
2478.000000	99.040184 
2477.000000	99.055408 
2476.000000	99.058211 
2475.000000	99.046442 
2474.000000	99.029273 
2473.000000	99.016841 
2472.000000	99.012222 
2471.000000	99.012460 
2470.000000	99.013987 
2469.000000	99.016771 
2468.000000	99.024693 
2467.000000	99.040231 
2466.000000	99.056722 
2465.000000	99.059481 
2464.000000	99.040258 
2463.000000	99.009472 
2462.000000	98.988301 
2461.000000	98.987872 
2460.000000	99.000299 
2459.000000	99.009577 
2458.000000	99.005793 
2457.000000	98.988991 
2456.000000	98.967161 
2455.000000	98.954130 
2454.000000	98.962712 
2453.000000	98.993188 
2452.000000	99.030192 
2451.000000	99.054951 
2450.000000	99.059512 
2449.000000	99.047758 
2448.000000	99.027082 
2447.000000	99.003485 
2446.000000	98.981995 
2445.000000	98.966004 
2444.000000	98.955469 
2443.000000	98.948630 
2442.000000	98.945971 
2441.000000	98.950993 
2440.000000	98.966921 
2439.000000	98.992405 
2438.000000	99.018993 
2437.000000	99.033806 
2436.000000	99.029155 
2435.000000	99.011108 
2434.000000	98.994874 
2433.000000	98.989935 
2432.000000	98.993260 
2431.000000	98.998520 
2430.000000	99.006012 
2429.000000	99.018770 
2428.000000	99.033605 
2427.000000	99.042701 
2426.000000	99.042509 
2425.000000	99.035642 
2424.000000	99.025152 
2423.000000	99.012057 
2422.000000	98.998040 
2421.000000	98.985859 
2420.000000	98.977001 
2419.000000	98.972423 
2418.000000	98.974313 
2417.000000	98.982358 
2416.000000	98.989558 
2415.000000	98.988518 
2414.000000	98.983152 
2413.000000	98.987772 
2412.000000	99.010900 
2411.000000	99.043886 
2410.000000	99.068944 
2409.000000	99.075921 
2408.000000	99.068948 
2407.000000	99.059960 
2406.000000	99.059336 
2405.000000	99.070062 
2404.000000	99.085747 
2403.000000	99.094358 
2402.000000	99.088161 
2401.000000	99.071565 
2400.000000	99.057011 
2399.000000	99.052255 
2398.000000	99.053795 
2397.000000	99.053707 
2396.000000	99.050070 
2395.000000	99.047882 
2394.000000	99.051036 
2393.000000	99.056811 
2392.000000	99.059032 
2391.000000	99.054344 
2390.000000	99.044211 
2389.000000	99.032569 
2388.000000	99.022981 
2387.000000	99.016698 
2386.000000	99.011865 
2385.000000	99.005787 
2384.000000	98.999817 
2383.000000	99.000719 
2382.000000	99.014280 
2381.000000	99.037722 
2380.000000	99.061434 
2379.000000	99.078534 
2378.000000	99.088774 
2377.000000	99.091850 
2376.000000	99.082631 
2375.000000	99.058667 
2374.000000	99.029069 
2373.000000	99.008868 
2372.000000	99.004010 
2371.000000	99.006194 
2370.000000	99.002630 
2369.000000	98.987498 
2368.000000	98.965155 
2367.000000	98.946702 
2366.000000	98.941840 
2365.000000	98.949276 
2364.000000	98.957240 
2363.000000	98.959524 
2362.000000	98.967465 
2361.000000	98.995447 
2360.000000	99.037312 
2359.000000	99.070459 
2358.000000	99.078947 
2357.000000	99.064888 
2356.000000	99.037510 
2355.000000	99.005257 
2354.000000	98.977137 
2353.000000	98.959063 
2352.000000	98.952943 
2351.000000	98.956998 
2350.000000	98.968151 
2349.000000	98.981977 
2348.000000	98.989129 
2347.000000	98.980186 
2346.000000	98.955770 
2345.000000	98.933272 
2344.000000	98.921857 
2343.000000	98.912482 
2342.000000	98.908673 
2341.000000	98.929082 
2340.000000	98.977965 
2339.000000	99.031539 
2338.000000	99.063508 
2337.000000	99.065836 
2336.000000	99.045816 
2335.000000	99.014343 
2334.000000	98.984961 
2333.000000	98.967366 
2332.000000	98.959796 
2331.000000	98.948351 
2330.000000	98.923682 
2329.000000	98.890424 
2328.000000	98.856807 
2327.000000	98.828950 
2326.000000	98.812216 
2325.000000	98.815559 
2324.000000	98.841979 
2323.000000	98.879793 
2322.000000	98.910988 
2321.000000	98.926421 
2320.000000	98.932690 
2319.000000	98.939066 
2318.000000	98.948829 
2317.000000	98.958067 
2316.000000	98.961706 
2315.000000	98.956418 
2314.000000	98.942786 
2313.000000	98.925007 
2312.000000	98.908539 
2311.000000	98.897873 
2310.000000	98.895196 
2309.000000	98.899510 
2308.000000	98.905768 
2307.000000	98.907741 
2306.000000	98.902643 
2305.000000	98.892605 
2304.000000	98.881921 
2303.000000	98.874221 
2302.000000	98.873060 
2301.000000	98.881220 
2300.000000	98.897460 
2299.000000	98.915139 
2298.000000	98.927006 
2297.000000	98.931066 
2296.000000	98.929676 
2295.000000	98.925360 
2294.000000	98.919837 
2293.000000	98.917332 
2292.000000	98.922942 
2291.000000	98.936588 
2290.000000	98.950866 
2289.000000	98.958665 
2288.000000	98.961000 
2287.000000	98.964690 
2286.000000	98.972906 
2285.000000	98.981293 
2284.000000	98.983337 
2283.000000	98.976630 
2282.000000	98.964020 
2281.000000	98.951770 
2280.000000	98.946920 
2279.000000	98.951718 
2278.000000	98.959415 
2277.000000	98.959921 
2276.000000	98.952545 
2275.000000	98.947435 
2274.000000	98.949891 
2273.000000	98.949713 
2272.000000	98.935046 
2271.000000	98.912930 
2270.000000	98.903980 
2269.000000	98.916283 
2268.000000	98.936426 
2267.000000	98.949651 
2266.000000	98.956155 
2265.000000	98.960506 
2264.000000	98.957445 
2263.000000	98.941244 
2262.000000	98.921571 
2261.000000	98.915362 
2260.000000	98.924300 
2259.000000	98.932780 
2258.000000	98.929058 
2257.000000	98.917848 
2256.000000	98.910314 
2255.000000	98.911090 
2254.000000	98.918799 
2253.000000	98.930345 
2252.000000	98.940012 
2251.000000	98.941303 
2250.000000	98.935414 
2249.000000	98.932810 
2248.000000	98.941925 
2247.000000	98.960183 
2246.000000	98.979566 
2245.000000	98.996394 
2244.000000	99.010599 
2243.000000	99.020423 
2242.000000	99.024677 
2241.000000	99.027583 
2240.000000	99.033187 
2239.000000	99.034452 
2238.000000	99.015654 
2237.000000	98.970434 
2236.000000	98.914377 
2235.000000	98.875184 
2234.000000	98.870358 
2233.000000	98.895310 
2232.000000	98.930925 
2231.000000	98.959038 
2230.000000	98.970158 
2229.000000	98.962131 
2228.000000	98.939128 
2227.000000	98.913123 
2226.000000	98.899940 
2225.000000	98.907139 
2224.000000	98.925454 
2223.000000	98.935936 
2222.000000	98.926962 
2221.000000	98.904066 
2220.000000	98.885291 
2219.000000	98.889061 
2218.000000	98.923215 
2217.000000	98.978800 
2216.000000	99.032424 
2215.000000	99.058868 
2214.000000	99.045995 
2213.000000	99.000680 
2212.000000	98.943061 
2211.000000	98.896454 
2210.000000	98.879772 
2209.000000	98.900914 
2208.000000	98.949455 
2207.000000	98.995474 
2206.000000	99.003130 
2205.000000	98.957346 
2204.000000	98.883480 
2203.000000	98.833982 
2202.000000	98.844432 
2201.000000	98.899379 
2200.000000	98.948011 
2199.000000	98.956758 
2198.000000	98.938505 
2197.000000	98.926006 
2196.000000	98.927717 
2195.000000	98.922978 
2194.000000	98.897104 
2193.000000	98.865850 
2192.000000	98.858868 
2191.000000	98.886346 
2190.000000	98.928573 
2189.000000	98.956423 
2188.000000	98.959136 
2187.000000	98.951360 
2186.000000	98.953815 
2185.000000	98.970855 
2184.000000	98.991628 
2183.000000	99.009994 
2182.000000	99.030321 
2181.000000	99.049020 
2180.000000	99.046378 
2179.000000	99.011709 
2178.000000	98.967452 
2177.000000	98.950297 
2176.000000	98.969123 
2175.000000	98.998569 
2174.000000	99.016902 
2173.000000	99.031353 
2172.000000	99.057297 
2171.000000	99.088214 
2170.000000	99.100285 
2169.000000	99.079823 
2168.000000	99.033842 
2167.000000	98.975772 
2166.000000	98.913040 
2165.000000	98.851480 
2164.000000	98.802751 
2163.000000	98.781861 
2162.000000	98.799258 
2161.000000	98.855559 
2160.000000	98.941712 
2159.000000	99.043922 
2158.000000	99.146984 
2157.000000	99.231429 
2156.000000	99.273528 
2155.000000	99.257844 
2154.000000	99.193737 
2153.000000	99.115153 
2152.000000	99.056629 
2151.000000	99.028426 
2150.000000	99.016823 
2149.000000	99.004538 
2148.000000	98.986894 
2147.000000	98.970671 
2146.000000	98.963847 
2145.000000	98.969643 
2144.000000	98.987758 
2143.000000	99.017226 
2142.000000	99.056004 
2141.000000	99.098242 
2140.000000	99.133750 
2139.000000	99.151454 
2138.000000	99.144616 
2137.000000	99.115249 
2136.000000	99.075178 
2135.000000	99.041232 
2134.000000	99.025748 
2133.000000	99.028851 
2132.000000	99.039981 
2131.000000	99.048084 
2130.000000	99.050218 
2129.000000	99.050870 
2128.000000	99.054859 
2127.000000	99.062391 
2126.000000	99.070021 
2125.000000	99.074100 
2124.000000	99.072895 
2123.000000	99.067405 
2122.000000	99.061520 
2121.000000	99.059937 
2120.000000	99.063042 
2119.000000	99.063485 
2118.000000	99.051106 
2117.000000	99.024701 
2116.000000	98.998240 
2115.000000	98.991564 
2114.000000	99.012989 
2113.000000	99.052119 
2112.000000	99.089948 
2111.000000	99.113216 
2110.000000	99.118277 
2109.000000	99.107734 
2108.000000	99.089928 
2107.000000	99.078490 
2106.000000	99.083764 
2105.000000	99.102102 
2104.000000	99.118257 
2103.000000	99.120642 
2102.000000	99.110669 
2101.000000	99.095545 
2100.000000	99.076181 
2099.000000	99.046507 
2098.000000	99.005183 
2097.000000	98.966387 
2096.000000	98.955157 
2095.000000	98.985778 
2094.000000	99.041841 
2093.000000	99.083999 
2092.000000	99.085629 
2091.000000	99.058202 
2090.000000	99.034600 
2089.000000	99.030774 
2088.000000	99.034606 
2087.000000	99.032237 
2086.000000	99.028743 
2085.000000	99.033890 
2084.000000	99.040846 
2083.000000	99.034293 
2082.000000	99.014369 
2081.000000	98.997810 
2080.000000	98.995482 
2079.000000	99.001299 
2078.000000	99.006128 
2077.000000	99.011576 
2076.000000	99.023833 
2075.000000	99.040414 
2074.000000	99.049318 
2073.000000	99.039585 
2072.000000	99.010154 
2071.000000	98.970701 
2070.000000	98.937819 
2069.000000	98.929563 
2068.000000	98.958053 
2067.000000	99.020749 
2066.000000	99.094158 
2065.000000	99.139931 
2064.000000	99.130051 
2063.000000	99.072417 
2062.000000	99.006882 
2061.000000	98.972038 
2060.000000	98.976237 
2059.000000	99.000172 
2058.000000	99.020369 
2057.000000	99.024661 
2056.000000	99.011540 
2055.000000	98.984709 
2054.000000	98.949540 
2053.000000	98.911458 
2052.000000	98.878291 
2051.000000	98.863697 
2050.000000	98.880160 
2049.000000	98.922144 
2048.000000	98.966012 
2047.000000	98.997780 
2046.000000	99.029324 
2045.000000	99.073294 
2044.000000	99.114526 
2043.000000	99.125515 
2042.000000	99.104408 
2041.000000	99.077893 
2040.000000	99.066851 
2039.000000	99.069080 
2038.000000	99.077980 
2037.000000	99.094916 
2036.000000	99.113101 
2035.000000	99.108694 
2034.000000	99.065941 
2033.000000	99.003910 
2032.000000	98.963342 
2031.000000	98.968943 
2030.000000	99.011189 
2029.000000	99.058182 
2028.000000	99.081276 
2027.000000	99.076696 
2026.000000	99.065958 
2025.000000	99.072192 
2024.000000	99.096185 
2023.000000	99.120417 
2022.000000	99.132389 
2021.000000	99.131464 
2020.000000	99.115068 
2019.000000	99.076258 
2018.000000	99.022159 
2017.000000	98.978801 
2016.000000	98.963455 
2015.000000	98.963860 
2014.000000	98.957471 
2013.000000	98.939729 
2012.000000	98.920903 
2011.000000	98.905502 
2010.000000	98.893157 
2009.000000	98.896315 
2008.000000	98.933827 
2007.000000	98.998364 
2006.000000	99.048272 
2005.000000	99.049786 
2004.000000	99.019265 
2003.000000	99.004460 
2002.000000	99.025790 
2001.000000	99.050732 
2000.000000	99.033664 
1999.000000	98.971712 
1998.000000	98.906794 
1997.000000	98.877413 
1996.000000	98.882899 
1995.000000	98.896166 
1994.000000	98.896516 
1993.000000	98.884098 
1992.000000	98.874900 
1991.000000	98.888779 
1990.000000	98.933262 
1989.000000	98.990283 
1988.000000	99.025834 
1987.000000	99.021744 
1986.000000	98.991555 
1985.000000	98.957951 
1984.000000	98.926705 
1983.000000	98.896480 
1982.000000	98.882262 
1981.000000	98.904195 
1980.000000	98.953089 
1979.000000	98.990459 
1978.000000	98.993728 
1977.000000	98.985012 
1976.000000	98.998148 
1975.000000	99.032789 
1974.000000	99.059496 
1973.000000	99.057343 
1972.000000	99.031590 
1971.000000	99.001289 
1970.000000	98.982452 
1969.000000	98.981027 
1968.000000	98.991224 
1967.000000	99.001111 
1966.000000	99.007142 
1965.000000	99.020058 
1964.000000	99.048963 
1963.000000	99.083005 
1962.000000	99.097924 
1961.000000	99.084100 
1960.000000	99.061250 
1959.000000	99.057512 
1958.000000	99.078128 
1957.000000	99.102617 
1956.000000	99.111771 
1955.000000	99.109727 
1954.000000	99.114640 
1953.000000	99.131838 
1952.000000	99.143799 
1951.000000	99.129981 
1950.000000	99.092772 
1949.000000	99.057103 
1948.000000	99.044942 
1947.000000	99.055790 
1946.000000	99.072883 
1945.000000	99.083009 
1944.000000	99.085971 
1943.000000	99.086971 
1942.000000	99.085948 
1941.000000	99.079349 
1940.000000	99.070302 
1939.000000	99.068647 
1938.000000	99.077685 
1937.000000	99.086304 
1936.000000	99.080833 
1935.000000	99.063062 
1934.000000	99.048970 
1933.000000	99.050651 
1932.000000	99.066468 
1931.000000	99.089933 
1930.000000	99.118195 
1929.000000	99.143689 
1928.000000	99.150872 
1927.000000	99.133587 
1926.000000	99.108803 
1925.000000	99.100537 
1924.000000	99.109710 
1923.000000	99.113304 
1922.000000	99.096625 
1921.000000	99.071937 
1920.000000	99.060916 
1919.000000	99.072572 
1918.000000	99.101013 
1917.000000	99.133808 
1916.000000	99.158295 
1915.000000	99.164922 
1914.000000	99.149844 
1913.000000	99.117157 
1912.000000	99.076571 
1911.000000	99.038989 
1910.000000	99.016094 
1909.000000	99.016595 
1908.000000	99.038418 
1907.000000	99.067288 
1906.000000	99.086111 
1905.000000	99.086401 
1904.000000	99.071553 
1903.000000	99.053707 
1902.000000	99.045716 
1901.000000	99.050718 
1900.000000	99.060918 
1899.000000	99.067534 
1898.000000	99.069034 
1897.000000	99.068348 
1896.000000	99.064940 
1895.000000	99.056698 
1894.000000	99.048111 
1893.000000	99.047803 
1892.000000	99.058092 
1891.000000	99.072595 
1890.000000	99.083951 
1889.000000	99.090714 
1888.000000	99.096659 
1887.000000	99.106901 
1886.000000	99.124083 
1885.000000	99.143831 
1884.000000	99.154055 
1883.000000	99.144098 
1882.000000	99.115730 
1881.000000	99.081989 
1880.000000	99.056896 
1879.000000	99.047098 
1878.000000	99.050285 
1877.000000	99.058572 
1876.000000	99.063102 
1875.000000	99.059647 
1874.000000	99.052019 
1873.000000	99.046324 
1872.000000	99.042264 
1871.000000	99.035074 
1870.000000	99.026969 
1869.000000	99.030001 
1868.000000	99.049917 
1867.000000	99.075947 
1866.000000	99.092802 
1865.000000	99.093929 
1864.000000	99.084146 
1863.000000	99.074628 
1862.000000	99.074153 
1861.000000	99.082607 
1860.000000	99.092587 
1859.000000	99.098931 
1858.000000	99.103853 
1857.000000	99.109634 
1856.000000	99.111533 
1855.000000	99.103783 
1854.000000	99.090056 
1853.000000	99.080277 
1852.000000	99.078873 
1851.000000	99.081008 
1850.000000	99.078879 
1849.000000	99.071019 
1848.000000	99.063134 
1847.000000	99.061371 
1846.000000	99.066457 
1845.000000	99.073590 
1844.000000	99.076568 
1843.000000	99.073811 
1842.000000	99.068426 
1841.000000	99.061981 
1840.000000	99.054517 
1839.000000	99.047236 
1838.000000	99.043395 
1837.000000	99.047933 
1836.000000	99.064621 
1835.000000	99.092254 
1834.000000	99.121128 
1833.000000	99.137187 
1832.000000	99.134837 
1831.000000	99.122368 
1830.000000	99.111974 
1829.000000	99.106965 
1828.000000	99.102121 
1827.000000	99.094533 
1826.000000	99.088028 
1825.000000	99.087689 
1824.000000	99.092404 
1823.000000	99.096875 
1822.000000	99.100263 
1821.000000	99.105546 
1820.000000	99.112989 
1819.000000	99.118117 
1818.000000	99.117882 
1817.000000	99.114176 
1816.000000	99.107684 
1815.000000	99.097812 
1814.000000	99.088215 
1813.000000	99.086033 
1812.000000	99.092757 
1811.000000	99.099293 
1810.000000	99.099621 
1809.000000	99.099580 
1808.000000	99.104652 
1807.000000	99.111772 
1806.000000	99.115811 
1805.000000	99.115101 
1804.000000	99.108729 
1803.000000	99.096796 
1802.000000	99.084154 
1801.000000	99.078290 
1800.000000	99.079165 
1799.000000	99.077761 
1798.000000	99.071030 
1797.000000	99.065937 
1796.000000	99.067790 
1795.000000	99.074313 
1794.000000	99.079380 
1793.000000	99.079811 
1792.000000	99.076951 
1791.000000	99.073901 
1790.000000	99.074511 
1789.000000	99.078921 
1788.000000	99.081658 
1787.000000	99.077140 
1786.000000	99.065704 
1785.000000	99.052188 
1784.000000	99.039126 
1783.000000	99.029279 
1782.000000	99.028317 
1781.000000	99.039615 
1780.000000	99.058597 
1779.000000	99.074359 
1778.000000	99.082106 
1777.000000	99.085480 
1776.000000	99.089899 
1775.000000	99.098046 
1774.000000	99.106229 
1773.000000	99.105852 
1772.000000	99.092689 
1771.000000	99.073024 
1770.000000	99.057006 
1769.000000	99.051457 
1768.000000	99.055922 
1767.000000	99.061750 
1766.000000	99.060852 
1765.000000	99.055595 
1764.000000	99.055516 
1763.000000	99.066504 
1762.000000	99.083480 
1761.000000	99.097374 
1760.000000	99.105023 
1759.000000	99.105369 
1758.000000	99.095429 
1757.000000	99.072985 
1756.000000	99.045907 
1755.000000	99.026786 
1754.000000	99.020083 
1753.000000	99.023197 
1752.000000	99.033122 
1751.000000	99.044464 
1750.000000	99.048282 
1749.000000	99.042295 
1748.000000	99.033594 
1747.000000	99.028844 
1746.000000	99.025333 
1745.000000	99.019126 
1744.000000	99.014751 
1743.000000	99.016896 
1742.000000	99.021556 
1741.000000	99.022509 
1740.000000	99.019329 
1739.000000	99.015466 
1738.000000	99.010961 
1737.000000	99.003226 
1736.000000	98.990149 
1735.000000	98.973389 
1734.000000	98.958077 
1733.000000	98.949862 
1732.000000	98.953155 
1731.000000	98.967820 
1730.000000	98.988797 
1729.000000	99.006464 
1728.000000	99.016145 
1727.000000	99.021394 
1726.000000	99.025234 
1725.000000	99.025675 
1724.000000	99.021249 
1723.000000	99.014142 
1722.000000	99.010318 
1721.000000	99.013685 
1720.000000	99.023264 
1719.000000	99.034171 
1718.000000	99.041780 
1717.000000	99.047166 
1716.000000	99.049425 
1715.000000	99.045195 
1714.000000	99.039766 
1713.000000	99.039944 
1712.000000	99.043548 
1711.000000	99.045393 
1710.000000	99.045191 
1709.000000	99.045036 
1708.000000	99.045792 
1707.000000	99.047293 
1706.000000	99.051775 
1705.000000	99.062543 
1704.000000	99.072234 
1703.000000	99.070447 
1702.000000	99.052481 
1701.000000	99.029803 
1700.000000	99.022102 
1699.000000	99.027164 
1698.000000	99.037009 
1697.000000	99.052293 
1696.000000	99.067824 
1695.000000	99.077629 
1694.000000	99.085546 
1693.000000	99.093630 
1692.000000	99.095994 
1691.000000	99.087355 
1690.000000	99.073130 
1689.000000	99.062119 
1688.000000	99.054757 
1687.000000	99.045782 
1686.000000	99.033207 
1685.000000	99.024586 
1684.000000	99.022005 
1683.000000	99.024818 
1682.000000	99.035666 
1681.000000	99.050291 
1680.000000	99.065315 
1679.000000	99.076726 
1678.000000	99.081376 
1677.000000	99.078995 
1676.000000	99.075589 
1675.000000	99.078649 
1674.000000	99.084896 
1673.000000	99.085397 
1672.000000	99.078663 
1671.000000	99.069224 
1670.000000	99.063384 
1669.000000	99.061809 
1668.000000	99.062564 
1667.000000	99.064850 
1666.000000	99.064786 
1665.000000	99.059179 
1664.000000	99.048919 
1663.000000	99.040691 
1662.000000	99.042610 
1661.000000	99.053754 
1660.000000	99.069261 
1659.000000	99.084971 
1658.000000	99.095812 
1657.000000	99.093541 
1656.000000	99.078242 
1655.000000	99.058439 
1654.000000	99.049583 
1653.000000	99.051679 
1652.000000	99.056085 
1651.000000	99.061856 
1650.000000	99.064659 
1649.000000	99.068256 
1648.000000	99.074802 
1647.000000	99.081783 
1646.000000	99.080359 
1645.000000	99.072163 
1644.000000	99.062730 
1643.000000	99.057153 
1642.000000	99.057868 
1641.000000	99.059782 
1640.000000	99.053254 
1639.000000	99.035337 
1638.000000	99.015349 
1637.000000	99.007089 
1636.000000	99.012287 
1635.000000	99.020379 
1634.000000	99.025163 
1633.000000	99.028440 
1632.000000	99.030717 
1631.000000	99.030890 
1630.000000	99.030518 
1629.000000	99.033703 
1628.000000	99.043922 
1627.000000	99.060245 
1626.000000	99.075271 
1625.000000	99.078662 
1624.000000	99.066181 
1623.000000	99.046246 
1622.000000	99.032271 
1621.000000	99.025791 
1620.000000	99.022034 
1619.000000	99.021207 
1618.000000	99.027319 
1617.000000	99.037148 
1616.000000	99.041344 
1615.000000	99.041579 
1614.000000	99.043051 
1613.000000	99.043935 
1612.000000	99.041492 
1611.000000	99.039107 
1610.000000	99.041250 
1609.000000	99.045029 
1608.000000	99.046369 
1607.000000	99.049001 
1606.000000	99.055682 
1605.000000	99.058871 
1604.000000	99.052069 
1603.000000	99.040814 
1602.000000	99.036129 
1601.000000	99.041597 
1600.000000	99.052322 
1599.000000	99.062196 
1598.000000	99.065688 
1597.000000	99.058628 
1596.000000	99.042775 
1595.000000	99.028321 
1594.000000	99.026419 
1593.000000	99.037925 
1592.000000	99.054568 
1591.000000	99.068986 
1590.000000	99.078284 
1589.000000	99.080590 
1588.000000	99.075444 
1587.000000	99.066395 
1586.000000	99.058353 
1585.000000	99.051691 
1584.000000	99.046115 
1583.000000	99.046666 
1582.000000	99.055937 
1581.000000	99.067090 
1580.000000	99.072440 
1579.000000	99.073697 
1578.000000	99.076808 
1577.000000	99.082193 
1576.000000	99.084513 
1575.000000	99.086699 
1574.000000	99.093093 
1573.000000	99.098019 
1572.000000	99.097371 
1571.000000	99.094357 
1570.000000	99.095649 
1569.000000	99.098949 
1568.000000	99.100101 
1567.000000	99.100900 
1566.000000	99.102694 
1565.000000	99.102317 
1564.000000	99.100988 
1563.000000	99.102407 
1562.000000	99.110638 
1561.000000	99.120946 
1560.000000	99.132583 
1559.000000	99.134601 
1558.000000	99.121060 
1557.000000	99.112314 
1556.000000	99.109028 
1555.000000	99.109368 
1554.000000	99.106530 
1553.000000	99.098179 
1552.000000	99.085428 
1551.000000	99.072534 
1550.000000	99.063585 
1549.000000	99.062472 
1548.000000	99.066999 
1547.000000	99.071853 
1546.000000	99.073710 
1545.000000	99.075445 
1544.000000	99.082403 
1543.000000	99.092448 
1542.000000	99.097585 
1541.000000	99.094347 
1540.000000	99.081187 
1539.000000	99.072563 
1538.000000	99.082644 
1537.000000	99.099327 
1536.000000	99.109982 
1535.000000	99.112061 
1534.000000	99.109905 
1533.000000	99.110616 
1532.000000	99.117967 
1531.000000	99.126596 
1530.000000	99.131765 
1529.000000	99.134913 
1528.000000	99.139146 
1527.000000	99.144817 
1526.000000	99.147715 
1525.000000	99.144880 
1524.000000	99.139839 
1523.000000	99.138438 
1522.000000	99.141585 
1521.000000	99.142630 
1520.000000	99.137783 
1519.000000	99.131824 
1518.000000	99.130780 
1517.000000	99.137875 
1516.000000	99.148585 
1515.000000	99.153244 
1514.000000	99.146557 
1513.000000	99.133114 
1512.000000	99.123194 
1511.000000	99.119647 
1510.000000	99.116976 
1509.000000	99.110791 
1508.000000	99.108098 
1507.000000	99.108409 
1506.000000	99.106266 
1505.000000	99.108835 
1504.000000	99.113584 
1503.000000	99.114344 
1502.000000	99.110055 
1501.000000	99.105606 
1500.000000	99.109148 
1499.000000	99.124915 
1498.000000	99.144740 
1497.000000	99.157445 
1496.000000	99.158894 
1495.000000	99.152541 
1494.000000	99.144877 
1493.000000	99.139095 
1492.000000	99.133896 
1491.000000	99.126739 
1490.000000	99.118012 
1489.000000	99.113012 
1488.000000	99.113183 
1487.000000	99.113499 
1486.000000	99.114378 
1485.000000	99.115474 
1484.000000	99.113273 
1483.000000	99.109115 
1482.000000	99.108145 
1481.000000	99.113463 
1480.000000	99.119575 
1479.000000	99.118410 
1478.000000	99.108602 
1477.000000	99.097189 
1476.000000	99.090769 
1475.000000	99.090748 
1474.000000	99.097501 
1473.000000	99.107115 
1472.000000	99.109271 
1471.000000	99.098049 
1470.000000	99.080623 
1469.000000	99.068633 
1468.000000	99.066590 
1467.000000	99.068925 
1466.000000	99.067541 
1465.000000	99.059959 
1464.000000	99.052230 
1463.000000	99.049606 
1462.000000	99.051237 
1461.000000	99.055951 
1460.000000	99.064905 
1459.000000	99.079161 
1458.000000	99.091551 
1457.000000	99.091835 
1456.000000	99.086593 
1455.000000	99.087392 
1454.000000	99.091561 
1453.000000	99.094755 
1452.000000	99.094230 
1451.000000	99.089448 
1450.000000	99.083042 
1449.000000	99.082311 
1448.000000	99.090489 
1447.000000	99.100944 
1446.000000	99.104973 
1445.000000	99.101263 
1444.000000	99.096311 
1443.000000	99.093985 
1442.000000	99.092743 
1441.000000	99.090909 
1440.000000	99.090854 
1439.000000	99.093942 
1438.000000	99.095220 
1437.000000	99.089567 
1436.000000	99.080143 
1435.000000	99.073337 
1434.000000	99.070256 
1433.000000	99.070722 
1432.000000	99.074244 
1431.000000	99.079267 
1430.000000	99.082797 
1429.000000	99.084769 
1428.000000	99.087123 
1427.000000	99.089901 
1426.000000	99.091458 
1425.000000	99.090153 
1424.000000	99.089837 
1423.000000	99.093447 
1422.000000	99.097986 
1421.000000	99.101177 
1420.000000	99.106594 
1419.000000	99.113417 
1418.000000	99.110171 
1417.000000	99.095259 
1416.000000	99.080974 
1415.000000	99.076312 
1414.000000	99.078838 
1413.000000	99.081614 
1412.000000	99.083272 
1411.000000	99.087170 
1410.000000	99.093096 
1409.000000	99.098429 
1408.000000	99.101217 
1407.000000	99.100919 
1406.000000	99.099407 
1405.000000	99.099954 
1404.000000	99.105737 
1403.000000	99.113302 
1402.000000	99.114796 
1401.000000	99.108359 
1400.000000	99.100548 
1399.000000	99.099038 
1398.000000	99.104056 
1397.000000	99.112571 
1396.000000	99.124099 
1395.000000	99.137171 
1394.000000	99.144289 
1393.000000	99.140300 
1392.000000	99.131784 
1391.000000	99.127765 
1390.000000	99.129972 
1389.000000	99.133588 
1388.000000	99.133298 
1387.000000	99.128965 
1386.000000	99.125567 
1385.000000	99.126762 
1384.000000	99.131204 
1383.000000	99.133647 
1382.000000	99.129836 
1381.000000	99.121729 
1380.000000	99.114944 
1379.000000	99.112853 
1378.000000	99.113593 
1377.000000	99.113555 
1376.000000	99.112762 
1375.000000	99.115107 
1374.000000	99.121098 
1373.000000	99.124537 
1372.000000	99.120319 
1371.000000	99.111810 
1370.000000	99.107191 
1369.000000	99.109188 
1368.000000	99.113680 
1367.000000	99.115180 
1366.000000	99.112403 
1365.000000	99.109104 
1364.000000	99.110098 
1363.000000	99.116322 
1362.000000	99.123397 
1361.000000	99.126248 
1360.000000	99.124901 
1359.000000	99.124137 
1358.000000	99.127500 
1357.000000	99.133453 
1356.000000	99.138796 
1355.000000	99.143832 
1354.000000	99.151209 
1353.000000	99.160855 
1352.000000	99.167336 
1351.000000	99.165440 
1350.000000	99.156461 
1349.000000	99.144833 
1348.000000	99.134729 
1347.000000	99.129131 
1346.000000	99.129880 
1345.000000	99.136008 
1344.000000	99.143292 
1343.000000	99.146557 
1342.000000	99.142617 
1341.000000	99.131842 
1340.000000	99.119262 
1339.000000	99.112724 
1338.000000	99.115990 
1337.000000	99.125022 
1336.000000	99.132720 
1335.000000	99.134796 
1334.000000	99.130728 
1333.000000	99.121970 
1332.000000	99.111839 
1331.000000	99.106186 
1330.000000	99.109592 
1329.000000	99.119854 
1328.000000	99.129269 
1327.000000	99.132347 
1326.000000	99.129602 
1325.000000	99.123935 
1324.000000	99.118836 
1323.000000	99.118540 
1322.000000	99.125270 
1321.000000	99.135659 
1320.000000	99.143710 
1319.000000	99.148182 
1318.000000	99.153227 
1317.000000	99.160140 
1316.000000	99.162918 
1315.000000	99.155501 
1314.000000	99.140609 
1313.000000	99.128007 
1312.000000	99.124654 
1311.000000	99.129900 
1310.000000	99.139676 
1309.000000	99.151166 
1308.000000	99.161918 
1307.000000	99.168217 
1306.000000	99.167250 
1305.000000	99.159626 
1304.000000	99.149585 
1303.000000	99.142247 
1302.000000	99.140736 
1301.000000	99.144581 
1300.000000	99.150276 
1299.000000	99.153884 
1298.000000	99.153927 
1297.000000	99.151649 
1296.000000	99.148842 
1295.000000	99.146992 
1294.000000	99.147973 
1293.000000	99.153142 
1292.000000	99.160340 
1291.000000	99.163852 
1290.000000	99.159860 
1289.000000	99.151058 
1288.000000	99.143654 
1287.000000	99.140675 
1286.000000	99.140442 
1285.000000	99.140623 
1284.000000	99.140213 
1283.000000	99.137382 
1282.000000	99.129904 
1281.000000	99.119733 
1280.000000	99.113894 
1279.000000	99.117554 
1278.000000	99.127173 
1277.000000	99.133678 
1276.000000	99.132037 
1275.000000	99.125605 
1274.000000	99.120880 
1273.000000	99.120228 
1272.000000	99.120753 
1271.000000	99.118765 
1270.000000	99.113805 
1269.000000	99.108300 
1268.000000	99.104371 
1267.000000	99.101704 
1266.000000	99.098637 
1265.000000	99.095005 
1264.000000	99.092451 
1263.000000	99.091576 
1262.000000	99.090908 
1261.000000	99.090080 
1260.000000	99.092266 
1259.000000	99.100823 
1258.000000	99.113729 
1257.000000	99.124347 
1256.000000	99.127892 
1255.000000	99.125143 
1254.000000	99.119608 
1253.000000	99.113400 
1252.000000	99.107461 
1251.000000	99.104300 
1250.000000	99.107469 
1249.000000	99.117227 
1248.000000	99.127922 
1247.000000	99.131492 
1246.000000	99.125038 
1245.000000	99.115359 
1244.000000	99.114470 
1243.000000	99.128960 
1242.000000	99.153705 
1241.000000	99.176709 
1240.000000	99.189268 
1239.000000	99.190618 
1238.000000	99.184435 
1237.000000	99.173629 
1236.000000	99.159386 
1235.000000	99.143381 
1234.000000	99.128463 
1233.000000	99.116616 
1232.000000	99.107469 
1231.000000	99.100027 
1230.000000	99.095671 
1229.000000	99.097812 
1228.000000	99.107108 
1227.000000	99.118087 
1226.000000	99.123129 
1225.000000	99.120239 
1224.000000	99.114699 
1223.000000	99.112391 
1222.000000	99.113648 
1221.000000	99.114795 
1220.000000	99.113597 
1219.000000	99.111199 
1218.000000	99.109929 
1217.000000	99.111244 
1216.000000	99.115331 
1215.000000	99.121352 
1214.000000	99.128352 
1213.000000	99.136498 
1212.000000	99.146339 
1211.000000	99.156176 
1210.000000	99.162005 
1209.000000	99.161212 
1208.000000	99.154958 
1207.000000	99.146288 
1206.000000	99.137896 
1205.000000	99.132396 
1204.000000	99.131819 
1203.000000	99.134629 
1202.000000	99.135356 
1201.000000	99.129907 
1200.000000	99.120156 
1199.000000	99.111309 
1198.000000	99.105942 
1197.000000	99.102756 
1196.000000	99.099992 
1195.000000	99.097715 
1194.000000	99.097424 
1193.000000	99.100863 
1192.000000	99.108370 
1191.000000	99.117290 
1190.000000	99.123746 
1189.000000	99.127100 
1188.000000	99.130144 
1187.000000	99.133480 
1186.000000	99.133463 
1185.000000	99.128753 
1184.000000	99.124972 
1183.000000	99.127826 
1182.000000	99.134275 
1181.000000	99.136529 
1180.000000	99.133794 
1179.000000	99.133535 
1178.000000	99.139844 
1177.000000	99.146492 
1176.000000	99.144499 
1175.000000	99.132734 
1174.000000	99.118011 
1173.000000	99.107197 
1172.000000	99.102605 
1171.000000	99.103605 
1170.000000	99.108845 
1169.000000	99.115672 
1168.000000	99.119052 
1167.000000	99.113836 
1166.000000	99.100525 
1165.000000	99.088428 
1164.000000	99.089498 
1163.000000	99.106388 
1162.000000	99.128498 
1161.000000	99.142094 
1160.000000	99.141830 
1159.000000	99.129961 
1158.000000	99.108933 
1157.000000	99.081382 
1156.000000	99.055502 
1155.000000	99.042043 
1154.000000	99.043383 
1153.000000	99.050755 
1152.000000	99.054230 
1151.000000	99.051102 
1150.000000	99.043951 
1149.000000	99.036564 
1148.000000	99.033844 
1147.000000	99.039108 
1146.000000	99.047190 
1145.000000	99.045690 
1144.000000	99.028821 
1143.000000	99.007011 
1142.000000	98.997310 
1141.000000	99.005746 
1140.000000	99.023084 
1139.000000	99.035499 
1138.000000	99.035084 
1137.000000	99.022013 
1136.000000	99.002098 
1135.000000	98.983042 
1134.000000	98.969619 
1133.000000	98.961736 
1132.000000	98.958262 
1131.000000	98.960117 
1130.000000	98.965925 
1129.000000	98.966851 
1128.000000	98.951495 
1127.000000	98.917351 
1126.000000	98.874308 
1125.000000	98.835776 
1124.000000	98.808798 
1123.000000	98.792900 
1122.000000	98.784849 
1121.000000	98.782494 
1120.000000	98.785198 
1119.000000	98.791824 
1118.000000	98.798732 
1117.000000	98.801085 
1116.000000	98.797079 
1115.000000	98.789247 
1114.000000	98.779608 
1113.000000	98.765209 
1112.000000	98.741893 
1111.000000	98.712322 
1110.000000	98.686116 
1109.000000	98.669884 
1108.000000	98.658979 
1107.000000	98.640662 
1106.000000	98.606273 
1105.000000	98.560546 
1104.000000	98.518643 
1103.000000	98.492740 
1102.000000	98.479974 
1101.000000	98.465962 
1100.000000	98.441283 
1099.000000	98.411395 
1098.000000	98.389450 
1097.000000	98.379639 
1096.000000	98.373376 
1095.000000	98.361190 
1094.000000	98.343488 
1093.000000	98.326700 
1092.000000	98.312189 
1091.000000	98.293855 
1090.000000	98.267240 
1089.000000	98.237234 
1088.000000	98.213439 
1087.000000	98.198314 
1086.000000	98.183104 
1085.000000	98.157819 
1084.000000	98.123878 
1083.000000	98.094111 
1082.000000	98.079971 
1081.000000	98.080502 
1080.000000	98.083836 
1079.000000	98.076898 
1078.000000	98.053362 
1077.000000	98.016125 
1076.000000	97.975760 
1075.000000	97.945896 
1074.000000	97.936078 
1073.000000	97.946159 
1072.000000	97.966656 
1071.000000	97.984761 
1070.000000	97.991736 
1069.000000	97.986469 
1068.000000	97.972719 
1067.000000	97.954241 
1066.000000	97.934468 
1065.000000	97.919841 
1064.000000	97.917612 
1063.000000	97.925572 
1062.000000	97.927161 
1061.000000	97.904590 
1060.000000	97.858911 
1059.000000	97.812156 
1058.000000	97.785946 
1057.000000	97.780271 
1056.000000	97.776163 
1055.000000	97.756949 
1054.000000	97.723992 
1053.000000	97.692093 
1052.000000	97.671646 
1051.000000	97.657286 
1050.000000	97.635439 
1049.000000	97.601493 
1048.000000	97.564696 
1047.000000	97.535344 
1046.000000	97.513131 
1045.000000	97.491548 
1044.000000	97.468024 
1043.000000	97.443460 
1042.000000	97.415613 
1041.000000	97.381633 
1040.000000	97.346928 
1039.000000	97.322221 
1038.000000	97.308596 
1037.000000	97.293694 
1036.000000	97.268161 
1035.000000	97.238803 
1034.000000	97.217612 
1033.000000	97.201923 
1032.000000	97.174483 
1031.000000	97.123466 
1030.000000	97.056518 
1029.000000	96.994295 
1028.000000	96.954502 
1027.000000	96.940990 
1026.000000	96.941428 
1025.000000	96.933900 
1024.000000	96.901658 
1023.000000	96.846537 
1022.000000	96.787606 
1021.000000	96.744780 
1020.000000	96.723814 
1019.000000	96.715886 
1018.000000	96.707863 
1017.000000	96.691601 
1016.000000	96.666756 
1015.000000	96.638618 
1014.000000	96.612695 
1013.000000	96.588768 
1012.000000	96.560749 
1011.000000	96.524803 
1010.000000	96.486481 
1009.000000	96.455008 
1008.000000	96.429059 
1007.000000	96.393023 
1006.000000	96.331859 
1005.000000	96.248232 
1004.000000	96.162829 
1003.000000	96.101184 
1002.000000	96.082561 
1001.000000	96.114008 
1000.000000	96.182706 
999.000000	 96.253067 
998.000000	 96.285528 
997.000000	 96.268392 
996.000000	 96.226328 
995.000000	 96.192945 
994.000000	 96.180663 
993.000000	 96.181128 
992.000000	 96.184952 
991.000000	 96.188799 
990.000000	 96.187466 
989.000000	 96.172571 
988.000000	 96.140932 
987.000000	 96.095626 
986.000000	 96.037441 
985.000000	 95.963506 
984.000000	 95.876719 
983.000000	 95.788807 
982.000000	 95.710214 
981.000000	 95.642556 
980.000000	 95.583750 
979.000000	 95.534046 
978.000000	 95.493170 
977.000000	 95.457522 
976.000000	 95.424834 
975.000000	 95.396838 
974.000000	 95.372682 
973.000000	 95.344569 
972.000000	 95.306678 
971.000000	 95.266805 
970.000000	 95.242484 
969.000000	 95.243111 
968.000000	 95.258629 
967.000000	 95.267908 
966.000000	 95.258177 
965.000000	 95.235461 
964.000000	 95.215905 
963.000000	 95.209468 
962.000000	 95.215090 
961.000000	 95.229239 
960.000000	 95.250815 
959.000000	 95.274200 
958.000000	 95.286120 
957.000000	 95.278384 
956.000000	 95.259613 
955.000000	 95.245075 
954.000000	 95.236838 
953.000000	 95.223570 
952.000000	 95.199574 
951.000000	 95.172995 
950.000000	 95.152065 
949.000000	 95.133350 
948.000000	 95.109757 
947.000000	 95.082571 
946.000000	 95.058182 
945.000000	 95.037010 
944.000000	 95.011636 
943.000000	 94.973787 
942.000000	 94.920570 
941.000000	 94.858529 
940.000000	 94.805152 
939.000000	 94.780155 
938.000000	 94.787628 
937.000000	 94.809164 
936.000000	 94.820500 
935.000000	 94.813343 
934.000000	 94.796848 
933.000000	 94.781809 
932.000000	 94.771214 
931.000000	 94.764870 
930.000000	 94.763476 
929.000000	 94.763910 
928.000000	 94.756620 
927.000000	 94.734120 
926.000000	 94.700499 
925.000000	 94.667161 
924.000000	 94.638771 
923.000000	 94.607882 
922.000000	 94.565819 
921.000000	 94.515978 
920.000000	 94.472266 
919.000000	 94.444513 
918.000000	 94.428707 
917.000000	 94.412380 
916.000000	 94.386289 
915.000000	 94.349511 
914.000000	 94.307398 
913.000000	 94.268258 
912.000000	 94.239064 
911.000000	 94.219068 
910.000000	 94.198173 
909.000000	 94.166601 
908.000000	 94.126815 
907.000000	 94.091909 
906.000000	 94.070902 
905.000000	 94.058373 
904.000000	 94.039918 
903.000000	 94.006202 
902.000000	 93.961044 
901.000000	 93.916783 
900.000000	 93.882173 
899.000000	 93.854909 
898.000000	 93.826510 
897.000000	 93.792872 
896.000000	 93.756659 
895.000000	 93.719851 
894.000000	 93.680064 
893.000000	 93.636294 
892.000000	 93.591985 
891.000000	 93.548210 
890.000000	 93.499421 
889.000000	 93.441374 
888.000000	 93.378110 
887.000000	 93.314980 
886.000000	 93.250305 
885.000000	 93.182242 
884.000000	 93.119037 
883.000000	 93.070875 
882.000000	 93.031920 
881.000000	 92.981276 
880.000000	 92.904966 
879.000000	 92.810469 
878.000000	 92.717876 
877.000000	 92.641576 
876.000000	 92.580275 
875.000000	 92.519782 
874.000000	 92.446952 
873.000000	 92.365298 
872.000000	 92.292403 
871.000000	 92.236143 
870.000000	 92.181374 
869.000000	 92.110466 
868.000000	 92.028743 
867.000000	 91.954397 
866.000000	 91.888571 
865.000000	 91.814887 
864.000000	 91.730034 
863.000000	 91.654715 
862.000000	 91.604867 
861.000000	 91.566423 
860.000000	 91.511565 
859.000000	 91.433476 
858.000000	 91.354700 
857.000000	 91.303142 
856.000000	 91.285856 
855.000000	 91.284067 
854.000000	 91.270013 
853.000000	 91.230981 
852.000000	 91.178961 
851.000000	 91.136031 
850.000000	 91.111915 
849.000000	 91.098428 
848.000000	 91.081717 
847.000000	 91.053292 
846.000000	 91.013190 
845.000000	 90.972370 
844.000000	 90.951467 
843.000000	 90.966931 
842.000000	 91.014589 
841.000000	 91.071035 
840.000000	 91.109842 
839.000000	 91.112649 
838.000000	 91.072432 
837.000000	 90.998182 
836.000000	 90.914278 
835.000000	 90.843380 
834.000000	 90.788092 
833.000000	 90.736364 
832.000000	 90.681096 
831.000000	 90.622925 
830.000000	 90.558258 
829.000000	 90.482739 
828.000000	 90.407916 
827.000000	 90.354727 
826.000000	 90.323836 
825.000000	 90.292438 
824.000000	 90.250543 
823.000000	 90.219313 
822.000000	 90.219122 
821.000000	 90.238178 
820.000000	 90.247484 
819.000000	 90.232254 
818.000000	 90.198044 
817.000000	 90.159534 
816.000000	 90.135169 
815.000000	 90.143397 
814.000000	 90.189895 
813.000000	 90.259109 
812.000000	 90.325173 
811.000000	 90.369692 
810.000000	 90.386812 
809.000000	 90.378392 
808.000000	 90.352826 
807.000000	 90.326542 
806.000000	 90.318156 
805.000000	 90.336091 
804.000000	 90.371153 
803.000000	 90.402430 
802.000000	 90.415103 
801.000000	 90.416404 
800.000000	 90.430379 
799.000000	 90.471710 
798.000000	 90.527961 
797.000000	 90.574135 
796.000000	 90.600576 
795.000000	 90.617271 
794.000000	 90.634039 
793.000000	 90.649196 
792.000000	 90.660096 
791.000000	 90.674004 
790.000000	 90.702631 
789.000000	 90.751037 
788.000000	 90.814012 
787.000000	 90.878204 
786.000000	 90.928241 
785.000000	 90.958552 
784.000000	 90.981202 
783.000000	 91.015449 
782.000000	 91.066857 
781.000000	 91.122141 
780.000000	 91.166627 
779.000000	 91.201515 
778.000000	 91.240928 
777.000000	 91.294726 
776.000000	 91.356149 
775.000000	 91.406019 
774.000000	 91.431596 
773.000000	 91.443054 
772.000000	 91.466755 
771.000000	 91.517849 
770.000000	 91.583362 
769.000000	 91.638021 
768.000000	 91.672804 
767.000000	 91.701342 
766.000000	 91.742401 
765.000000	 91.803975 
764.000000	 91.881985 
763.000000	 91.965916 
762.000000	 92.045508 
761.000000	 92.117200 
760.000000	 92.182447 
759.000000	 92.237984 
758.000000	 92.276467 
757.000000	 92.303290 
756.000000	 92.341875 
755.000000	 92.408764 
754.000000	 92.489549 
753.000000	 92.553965 
752.000000	 92.591151 
751.000000	 92.615210 
750.000000	 92.639706 
749.000000	 92.665458 
748.000000	 92.695418 
747.000000	 92.742356 
746.000000	 92.811222 
745.000000	 92.884388 
744.000000	 92.935196 
743.000000	 92.953468 
742.000000	 92.953305 
741.000000	 92.958142 
740.000000	 92.978457 
739.000000	 93.000404 
738.000000	 92.998938 
737.000000	 92.969763 
736.000000	 92.945937 
735.000000	 92.970880 
734.000000	 93.051800 
733.000000	 93.148102 
732.000000	 93.208510 
731.000000	 93.213582 
730.000000	 93.183620 
729.000000	 93.157035 
728.000000	 93.165180 
727.000000	 93.215917 
726.000000	 93.290833 
725.000000	 93.360917 
724.000000	 93.407742 
723.000000	 93.428277 
722.000000	 93.426514 
721.000000	 93.414075 
720.000000	 93.415212 
719.000000	 93.449541 
718.000000	 93.507419 
717.000000	 93.560970 
716.000000	 93.598290 
715.000000	 93.631207 
714.000000	 93.668854 
713.000000	 93.702631 
712.000000	 93.729170 
711.000000	 93.770105 
710.000000	 93.848284 
709.000000	 93.951224 
708.000000	 94.036539 
707.000000	 94.072271 
706.000000	 94.060109 
705.000000	 94.025000 
704.000000	 93.997250 
703.000000	 94.002662 
702.000000	 94.052177 
701.000000	 94.132607 
700.000000	 94.214183 
699.000000	 94.272553 
698.000000	 94.299675 
697.000000	 94.296634 
696.000000	 94.267688 
695.000000	 94.225996 
694.000000	 94.197389 
693.000000	 94.206013 
692.000000	 94.254518 
691.000000	 94.324408 
690.000000	 94.396210 
689.000000	 94.465978 
688.000000	 94.536456 
687.000000	 94.594771 
686.000000	 94.615247 
685.000000	 94.592386 
684.000000	 94.559640 
683.000000	 94.560107 
682.000000	 94.599606 
681.000000	 94.642687 
680.000000	 94.656626 
679.000000	 94.644736 
678.000000	 94.625375 
677.000000	 94.596379 
676.000000	 94.546488 
675.000000	 94.485434 
674.000000	 94.440882 
673.000000	 94.428254 
672.000000	 94.438811 
671.000000	 94.461965 
670.000000	 94.502557 
669.000000	 94.594348 
668.000000	 94.746847 
667.000000	 94.828791 
666.000000	 94.801646 
665.000000	 94.733759 
664.000000	 94.633608 
663.000000	 94.492779 
662.000000	 94.348836 
661.000000	 94.261283 
660.000000	 94.258278 
659.000000	 94.322949 
658.000000	 94.420636 
657.000000	 94.518528 
656.000000	 94.591915 
655.000000	 94.622158 
654.000000	 94.625832 
653.000000	 94.654689 
652.000000	 94.750126 
651.000000	 94.864636 
650.000000	 94.912731 

