PE IR                   SPECTRUM    ASCII       PEDS        1.60        
  -1
~SP.SP
18/03/23
17:20:28.00
18/03/23
17:20:28.00
pili
Irradiada
650.000000
4









SPECTRUM 100,CPU32 MAIN 00.02.8200 12-DECEMBER-2006 10:00:00
MIR TGS
MIR
OPTKBR
78890
0.200000

4.000000
STRONG
RATIO
SPECTRUM
MAGNITUDE
UNIVERSAL ATR
DOUBLE

COMBINED


0


#HDR
-1
-1
#GR
CM-1
%T
0.00002384185791015625
0.0
4000.000000
-1.000000
3351
8
104.354187
93.303412
#DATA
4000.000000	99.688364  
3999.000000	99.692507  
3998.000000	99.697645  
3997.000000	99.701534  
3996.000000	99.702275  
3995.000000	99.700854  
3994.000000	99.701725  
3993.000000	99.709676  
3992.000000	99.725009  
3991.000000	99.742105  
3990.000000	99.753495  
3989.000000	99.755186  
3988.000000	99.748030  
3987.000000	99.735144  
3986.000000	99.719831  
3985.000000	99.705960  
3984.000000	99.697849  
3983.000000	99.697586  
3982.000000	99.702590  
3981.000000	99.707169  
3980.000000	99.707190  
3979.000000	99.702897  
3978.000000	99.697371  
3977.000000	99.693128  
3976.000000	99.690494  
3975.000000	99.688445  
3974.000000	99.685864  
3973.000000	99.681685  
3972.000000	99.675010  
3971.000000	99.666516  
3970.000000	99.659636  
3969.000000	99.658898  
3968.000000	99.666029  
3967.000000	99.678444  
3966.000000	99.692029  
3965.000000	99.704375  
3964.000000	99.713932  
3963.000000	99.716983  
3962.000000	99.708563  
3961.000000	99.688090  
3960.000000	99.662808  
3959.000000	99.643829  
3958.000000	99.637831  
3957.000000	99.642910  
3956.000000	99.652160  
3955.000000	99.661097  
3954.000000	99.670981  
3953.000000	99.684875  
3952.000000	99.701586  
3951.000000	99.714515  
3950.000000	99.717188  
3949.000000	99.709681  
3948.000000	99.698957  
3947.000000	99.692295  
3946.000000	99.691012  
3945.000000	99.690895  
3944.000000	99.688521  
3943.000000	99.686026  
3942.000000	99.688206  
3941.000000	99.695109  
3940.000000	99.700075  
3939.000000	99.696279  
3938.000000	99.684520  
3937.000000	99.673592  
3936.000000	99.671992  
3935.000000	99.680063  
3934.000000	99.690437  
3933.000000	99.695231  
3932.000000	99.692177  
3931.000000	99.684342  
3930.000000	99.676154  
3929.000000	99.670487  
3928.000000	99.667598  
3927.000000	99.665541  
3926.000000	99.662922  
3925.000000	99.661995  
3924.000000	99.666124  
3923.000000	99.673735  
3922.000000	99.678672  
3921.000000	99.678172  
3920.000000	99.677507  
3919.000000	99.684094  
3918.000000	99.697831  
3917.000000	99.711045  
3916.000000	99.717664  
3915.000000	99.718568  
3914.000000	99.717602  
3913.000000	99.715862  
3912.000000	99.710665  
3911.000000	99.699528  
3910.000000	99.683593  
3909.000000	99.667970  
3908.000000	99.657384  
3907.000000	99.652146  
3906.000000	99.648195  
3905.000000	99.642648  
3904.000000	99.638730  
3903.000000	99.642160  
3902.000000	99.652769  
3901.000000	99.662773  
3900.000000	99.664981  
3899.000000	99.660080  
3898.000000	99.654211  
3897.000000	99.651778  
3896.000000	99.653190  
3895.000000	99.657277  
3894.000000	99.662371  
3893.000000	99.665096  
3892.000000	99.660915  
3891.000000	99.650399  
3890.000000	99.640357  
3889.000000	99.636331  
3888.000000	99.635225  
3887.000000	99.629228  
3886.000000	99.618326  
3885.000000	99.612683  
3884.000000	99.619879  
3883.000000	99.636134  
3882.000000	99.650314  
3881.000000	99.654209  
3880.000000	99.649025  
3879.000000	99.641704  
3878.000000	99.637308  
3877.000000	99.636127  
3876.000000	99.635331  
3875.000000	99.633679  
3874.000000	99.633953  
3873.000000	99.638582  
3872.000000	99.643584  
3871.000000	99.641686  
3870.000000	99.633272  
3869.000000	99.626901  
3868.000000	99.626909  
3867.000000	99.628135  
3866.000000	99.624629  
3865.000000	99.618944  
3864.000000	99.617532  
3863.000000	99.620738  
3862.000000	99.624441  
3861.000000	99.627526  
3860.000000	99.631263  
3859.000000	99.636481  
3858.000000	99.641786  
3857.000000	99.644577  
3856.000000	99.643045  
3855.000000	99.640450  
3854.000000	99.642177  
3853.000000	99.644878  
3852.000000	99.640925  
3851.000000	99.630475  
3850.000000	99.619454  
3849.000000	99.613704  
3848.000000	99.615666  
3847.000000	99.622128  
3846.000000	99.626069  
3845.000000	99.621576  
3844.000000	99.607881  
3843.000000	99.590674  
3842.000000	99.577521  
3841.000000	99.571602  
3840.000000	99.570103  
3839.000000	99.569375  
3838.000000	99.568166  
3837.000000	99.567894  
3836.000000	99.571380  
3835.000000	99.580717  
3834.000000	99.594234  
3833.000000	99.606554  
3832.000000	99.613048  
3831.000000	99.613382  
3830.000000	99.610908  
3829.000000	99.608878  
3828.000000	99.606231  
3827.000000	99.598042  
3826.000000	99.580259  
3825.000000	99.553290  
3824.000000	99.521880  
3823.000000	99.496006  
3822.000000	99.488364  
3821.000000	99.504440  
3820.000000	99.535646  
3819.000000	99.567281  
3818.000000	99.588425  
3817.000000	99.597750  
3816.000000	99.606238  
3815.000000	99.623803  
3814.000000	99.645614  
3813.000000	99.658347  
3812.000000	99.654304  
3811.000000	99.637395  
3810.000000	99.618066  
3809.000000	99.603835  
3808.000000	99.595893  
3807.000000	99.593040  
3806.000000	99.594773  
3805.000000	99.599828  
3804.000000	99.603655  
3803.000000	99.600836  
3802.000000	99.593067  
3801.000000	99.589527  
3800.000000	99.595040  
3799.000000	99.606611  
3798.000000	99.618952  
3797.000000	99.629549  
3796.000000	99.639789  
3795.000000	99.650574  
3794.000000	99.660285  
3793.000000	99.667380  
3792.000000	99.672615  
3791.000000	99.676767  
3790.000000	99.678239  
3789.000000	99.675160  
3788.000000	99.669373  
3787.000000	99.665543  
3786.000000	99.666021  
3785.000000	99.667829  
3784.000000	99.665659  
3783.000000	99.656932  
3782.000000	99.644971  
3781.000000	99.638473  
3780.000000	99.645348  
3779.000000	99.663963  
3778.000000	99.681118  
3777.000000	99.681350  
3776.000000	99.658020  
3775.000000	99.617979  
3774.000000	99.576838  
3773.000000	99.548179  
3772.000000	99.536415  
3771.000000	99.539067  
3770.000000	99.552164  
3769.000000	99.571694  
3768.000000	99.592315  
3767.000000	99.607104  
3766.000000	99.610190  
3765.000000	99.601381  
3764.000000	99.586572  
3763.000000	99.572490  
3762.000000	99.563745  
3761.000000	99.564468  
3760.000000	99.575853  
3759.000000	99.590883  
3758.000000	99.598332  
3757.000000	99.594545  
3756.000000	99.583871  
3755.000000	99.569268  
3754.000000	99.550095  
3753.000000	99.530761  
3752.000000	99.523544  
3751.000000	99.532356  
3750.000000	99.544578  
3749.000000	99.550938  
3748.000000	99.556534  
3747.000000	99.566606  
3746.000000	99.576301  
3745.000000	99.581297  
3744.000000	99.585294  
3743.000000	99.588104  
3742.000000	99.585019  
3741.000000	99.576303  
3740.000000	99.568994  
3739.000000	99.570062  
3738.000000	99.574120  
3737.000000	99.567604  
3736.000000	99.551233  
3735.000000	99.546160  
3734.000000	99.567651  
3733.000000	99.604700  
3732.000000	99.634525  
3731.000000	99.646862  
3730.000000	99.648772  
3729.000000	99.651450  
3728.000000	99.658790  
3727.000000	99.667808  
3726.000000	99.673044  
3725.000000	99.668576  
3724.000000	99.652732  
3723.000000	99.631883  
3722.000000	99.617078  
3721.000000	99.615744  
3720.000000	99.626686  
3719.000000	99.642171  
3718.000000	99.653733  
3717.000000	99.657283  
3716.000000	99.651489  
3715.000000	99.634437  
3714.000000	99.606220  
3713.000000	99.575356  
3712.000000	99.555882  
3711.000000	99.554621  
3710.000000	99.566345  
3709.000000	99.581655  
3708.000000	99.595562  
3707.000000	99.608654  
3706.000000	99.623264  
3705.000000	99.638459  
3704.000000	99.649762  
3703.000000	99.652936  
3702.000000	99.648903  
3701.000000	99.644360  
3700.000000	99.646278  
3699.000000	99.654945  
3698.000000	99.663261  
3697.000000	99.664174  
3696.000000	99.656386  
3695.000000	99.642616  
3694.000000	99.626007  
3693.000000	99.611896  
3692.000000	99.608976  
3691.000000	99.623420  
3690.000000	99.649018  
3689.000000	99.668863  
3688.000000	99.673544  
3687.000000	99.671372  
3686.000000	99.675088  
3685.000000	99.685330  
3684.000000	99.691429  
3683.000000	99.683777  
3682.000000	99.662402  
3681.000000	99.635299  
3680.000000	99.612438  
3679.000000	99.597932  
3678.000000	99.585838  
3677.000000	99.565811  
3676.000000	99.538492  
3675.000000	99.518779  
3674.000000	99.518235  
3673.000000	99.534662  
3672.000000	99.558662  
3671.000000	99.586082  
3670.000000	99.619497  
3669.000000	99.655256  
3668.000000	99.683072  
3667.000000	99.698463  
3666.000000	99.705584  
3665.000000	99.711086  
3664.000000	99.716714  
3663.000000	99.718345  
3662.000000	99.712351  
3661.000000	99.701687  
3660.000000	99.693263  
3659.000000	99.689713  
3658.000000	99.686492  
3657.000000	99.677515  
3656.000000	99.663545  
3655.000000	99.651155  
3654.000000	99.645095  
3653.000000	99.643910  
3652.000000	99.642992  
3651.000000	99.640440  
3650.000000	99.637620  
3649.000000	99.635760  
3648.000000	99.637208  
3647.000000	99.646173  
3646.000000	99.664436  
3645.000000	99.689734  
3644.000000	99.717862  
3643.000000	99.744714  
3642.000000	99.766354  
3641.000000	99.779312  
3640.000000	99.782063  
3639.000000	99.777054  
3638.000000	99.769257  
3637.000000	99.760591  
3636.000000	99.747439  
3635.000000	99.726571  
3634.000000	99.703892  
3633.000000	99.691999  
3632.000000	99.698011  
3631.000000	99.716957  
3630.000000	99.737459  
3629.000000	99.752397  
3628.000000	99.761620  
3627.000000	99.768196  
3626.000000	99.774833  
3625.000000	99.782275  
3624.000000	99.790131  
3623.000000	99.796970  
3622.000000	99.799867  
3621.000000	99.797532  
3620.000000	99.793876  
3619.000000	99.794629  
3618.000000	99.800684  
3617.000000	99.808126  
3616.000000	99.812700  
3615.000000	99.813260  
3614.000000	99.813813  
3613.000000	99.821358  
3612.000000	99.838800  
3611.000000	99.860342  
3610.000000	99.875256  
3609.000000	99.877043  
3608.000000	99.869279  
3607.000000	99.861422  
3606.000000	99.860372  
3605.000000	99.867087  
3604.000000	99.878966  
3603.000000	99.892258  
3602.000000	99.902793  
3601.000000	99.907912  
3600.000000	99.908579  
3599.000000	99.908745  
3598.000000	99.913578  
3597.000000	99.927948  
3596.000000	99.953356  
3595.000000	99.984159  
3594.000000	100.008491 
3593.000000	100.015826 
3592.000000	100.005472 
3591.000000	99.986763  
3590.000000	99.971803  
3589.000000	99.967622  
3588.000000	99.972751  
3587.000000	99.980429  
3586.000000	99.985986  
3585.000000	99.989648  
3584.000000	99.993183  
3583.000000	99.996778  
3582.000000	99.999957  
3581.000000	100.003735 
3580.000000	100.010258 
3579.000000	100.020121 
3578.000000	100.031313 
3577.000000	100.041485 
3576.000000	100.049388 
3575.000000	100.052964 
3574.000000	100.047252 
3573.000000	100.028163 
3572.000000	99.999708  
3571.000000	99.975923  
3570.000000	99.972609  
3569.000000	99.995937  
3568.000000	100.037232 
3567.000000	100.080067 
3566.000000	100.113661 
3565.000000	100.138829 
3564.000000	100.161476 
3563.000000	100.183983 
3562.000000	100.202687 
3561.000000	100.211833 
3560.000000	100.210278 
3559.000000	100.204232 
3558.000000	100.201864 
3557.000000	100.205673 
3556.000000	100.211698 
3555.000000	100.216328 
3554.000000	100.221606 
3553.000000	100.232460 
3552.000000	100.250413 
3551.000000	100.272402 
3550.000000	100.294488 
3549.000000	100.313123 
3548.000000	100.323571 
3547.000000	100.321795 
3546.000000	100.310438 
3545.000000	100.299812 
3544.000000	100.299227 
3543.000000	100.308742 
3542.000000	100.321265 
3541.000000	100.331420 
3540.000000	100.339918 
3539.000000	100.349923 
3538.000000	100.361889 
3537.000000	100.373611 
3536.000000	100.383711 
3535.000000	100.392738 
3534.000000	100.401187 
3533.000000	100.408258 
3532.000000	100.413455 
3531.000000	100.417909 
3530.000000	100.423041 
3529.000000	100.428398 
3528.000000	100.432334 
3527.000000	100.434784 
3526.000000	100.438056 
3525.000000	100.444633 
3524.000000	100.455394 
3523.000000	100.470311 
3522.000000	100.489230 
3521.000000	100.510203 
3520.000000	100.527779 
3519.000000	100.535890 
3518.000000	100.534082 
3517.000000	100.529399 
3516.000000	100.530257 
3515.000000	100.539059 
3514.000000	100.551445 
3513.000000	100.561309 
3512.000000	100.565380 
3511.000000	100.564340 
3510.000000	100.561682 
3509.000000	100.561309 
3508.000000	100.564726 
3507.000000	100.570118 
3506.000000	100.574797 
3505.000000	100.578061 
3504.000000	100.580841 
3503.000000	100.583013 
3502.000000	100.582884 
3501.000000	100.579433 
3500.000000	100.573298 
3499.000000	100.565826 
3498.000000	100.559696 
3497.000000	100.560529 
3496.000000	100.573541 
3495.000000	100.595680 
3494.000000	100.613691 
3493.000000	100.614213 
3492.000000	100.596389 
3491.000000	100.572836 
3490.000000	100.558680 
3489.000000	100.560854 
3488.000000	100.576710 
3487.000000	100.598755 
3486.000000	100.618986 
3485.000000	100.631919 
3484.000000	100.636921 
3483.000000	100.637558 
3482.000000	100.636877 
3481.000000	100.633859 
3480.000000	100.626478 
3479.000000	100.617034 
3478.000000	100.611371 
3477.000000	100.612412 
3476.000000	100.617014 
3475.000000	100.620415 
3474.000000	100.622186 
3473.000000	100.626150 
3472.000000	100.635569 
3471.000000	100.650074 
3470.000000	100.666373 
3469.000000	100.680076 
3468.000000	100.687443 
3467.000000	100.687848 
3466.000000	100.684940 
3465.000000	100.683653 
3464.000000	100.685484 
3463.000000	100.688146 
3462.000000	100.690710 
3461.000000	100.697353 
3460.000000	100.713816 
3459.000000	100.740136 
3458.000000	100.768223 
3457.000000	100.787396 
3456.000000	100.792278 
3455.000000	100.785795 
3454.000000	100.775543 
3453.000000	100.768158 
3452.000000	100.766957 
3451.000000	100.772501 
3450.000000	100.782795 
3449.000000	100.792689 
3448.000000	100.795987 
3447.000000	100.791044 
3446.000000	100.783590 
3445.000000	100.781205 
3444.000000	100.784792 
3443.000000	100.787492 
3442.000000	100.782535 
3441.000000	100.770686 
3440.000000	100.758682 
3439.000000	100.751880 
3438.000000	100.750216 
3437.000000	100.750231 
3436.000000	100.748856 
3435.000000	100.744922 
3434.000000	100.738727 
3433.000000	100.731533 
3432.000000	100.725421 
3431.000000	100.722925 
3430.000000	100.726107 
3429.000000	100.734942 
3428.000000	100.745944 
3427.000000	100.753377 
3426.000000	100.753296 
3425.000000	100.746358 
3424.000000	100.735975 
3423.000000	100.724555 
3422.000000	100.713026 
3421.000000	100.703062 
3420.000000	100.696974 
3419.000000	100.694827 
3418.000000	100.693827 
3417.000000	100.691090 
3416.000000	100.685081 
3415.000000	100.674276 
3414.000000	100.657902 
3413.000000	100.640082 
3412.000000	100.630138 
3411.000000	100.634693 
3410.000000	100.650081 
3409.000000	100.665564 
3408.000000	100.673787 
3407.000000	100.675472 
3406.000000	100.674120 
3405.000000	100.670132 
3404.000000	100.662198 
3403.000000	100.651995 
3402.000000	100.644570 
3401.000000	100.643837 
3400.000000	100.648774 
3399.000000	100.653711 
3398.000000	100.651575 
3397.000000	100.637837 
3396.000000	100.613448 
3395.000000	100.585273 
3394.000000	100.563110 
3393.000000	100.554540 
3392.000000	100.560719 
3391.000000	100.576307 
3390.000000	100.593591 
3389.000000	100.606979 
3388.000000	100.614355 
3387.000000	100.615874 
3386.000000	100.613352 
3385.000000	100.610430 
3384.000000	100.610629 
3383.000000	100.613181 
3382.000000	100.612013 
3381.000000	100.601323 
3380.000000	100.582661 
3379.000000	100.565178 
3378.000000	100.557912 
3377.000000	100.561689 
3376.000000	100.568157 
3375.000000	100.566454 
3374.000000	100.552094 
3373.000000	100.531352 
3372.000000	100.517102 
3371.000000	100.518382 
3370.000000	100.532858 
3369.000000	100.550075 
3368.000000	100.562260 
3367.000000	100.570510 
3366.000000	100.579905 
3365.000000	100.590756 
3364.000000	100.597313 
3363.000000	100.594861 
3362.000000	100.585783 
3361.000000	100.577471 
3360.000000	100.575178 
3359.000000	100.577644 
3358.000000	100.579053 
3357.000000	100.574484 
3356.000000	100.563754 
3355.000000	100.550917 
3354.000000	100.540660 
3353.000000	100.535465 
3352.000000	100.536020 
3351.000000	100.543127 
3350.000000	100.557160 
3349.000000	100.574694 
3348.000000	100.587210 
3347.000000	100.586133 
3346.000000	100.570712 
3345.000000	100.550047 
3344.000000	100.536273 
3343.000000	100.535485 
3342.000000	100.544712 
3341.000000	100.555492 
3340.000000	100.559033 
3339.000000	100.550151 
3338.000000	100.530029 
3337.000000	100.506177 
3336.000000	100.487592 
3335.000000	100.478416 
3334.000000	100.476586 
3333.000000	100.477714 
3332.000000	100.477960 
3331.000000	100.473794 
3330.000000	100.463506 
3329.000000	100.451437 
3328.000000	100.447188 
3327.000000	100.456171 
3326.000000	100.472287 
3325.000000	100.484180 
3324.000000	100.488149 
3323.000000	100.490391 
3322.000000	100.495766 
3321.000000	100.499410 
3320.000000	100.492701 
3319.000000	100.474697 
3318.000000	100.453880 
3317.000000	100.439447 
3316.000000	100.434150 
3315.000000	100.435335 
3314.000000	100.439534 
3313.000000	100.444147 
3312.000000	100.446307 
3311.000000	100.442693 
3310.000000	100.431740 
3309.000000	100.416162 
3308.000000	100.402556 
3307.000000	100.396997 
3306.000000	100.399785 
3305.000000	100.404578 
3304.000000	100.403652 
3303.000000	100.394612 
3302.000000	100.382101 
3301.000000	100.373111 
3300.000000	100.370742 
3299.000000	100.372183 
3298.000000	100.372356 
3297.000000	100.369595 
3296.000000	100.367692 
3295.000000	100.371727 
3294.000000	100.381691 
3293.000000	100.391144 
3292.000000	100.393183 
3291.000000	100.387505 
3290.000000	100.380620 
3289.000000	100.379264 
3288.000000	100.384558 
3287.000000	100.392127 
3286.000000	100.396037 
3285.000000	100.391928 
3284.000000	100.378341 
3283.000000	100.357709 
3282.000000	100.336300 
3281.000000	100.320955 
3280.000000	100.314193 
3279.000000	100.313019 
3278.000000	100.313364 
3277.000000	100.314913 
3276.000000	100.320313 
3275.000000	100.330102 
3274.000000	100.340194 
3273.000000	100.344738 
3272.000000	100.340282 
3271.000000	100.327280 
3270.000000	100.309760 
3269.000000	100.294416 
3268.000000	100.287523 
3267.000000	100.289843 
3266.000000	100.295025 
3265.000000	100.295372 
3264.000000	100.289608 
3263.000000	100.283691 
3262.000000	100.283961 
3261.000000	100.290603 
3260.000000	100.297452 
3259.000000	100.296732 
3258.000000	100.284486 
3257.000000	100.263880 
3256.000000	100.244077 
3255.000000	100.233799 
3254.000000	100.234150 
3253.000000	100.238066 
3252.000000	100.237061 
3251.000000	100.227648 
3250.000000	100.211737 
3249.000000	100.193579 
3248.000000	100.177700 
3247.000000	100.167266 
3246.000000	100.161618 
3245.000000	100.156396 
3244.000000	100.148692 
3243.000000	100.141731 
3242.000000	100.141641 
3241.000000	100.149044 
3240.000000	100.156207 
3239.000000	100.154096 
3238.000000	100.141199 
3237.000000	100.124265 
3236.000000	100.111497 
3235.000000	100.106352 
3234.000000	100.106956 
3233.000000	100.109094 
3232.000000	100.108796 
3231.000000	100.103563 
3230.000000	100.093244 
3229.000000	100.080550 
3228.000000	100.069963 
3227.000000	100.064995 
3226.000000	100.066012 
3225.000000	100.071009 
3224.000000	100.078458 
3223.000000	100.088603 
3222.000000	100.101435 
3221.000000	100.114112 
3220.000000	100.121748 
3219.000000	100.121093 
3218.000000	100.112403 
3217.000000	100.097267 
3216.000000	100.076405 
3215.000000	100.051742 
3214.000000	100.030001 
3213.000000	100.020840 
3212.000000	100.028948 
3211.000000	100.048716 
3210.000000	100.068602 
3209.000000	100.080666 
3208.000000	100.084282 
3207.000000	100.081198 
3206.000000	100.070735 
3205.000000	100.052235 
3204.000000	100.029900 
3203.000000	100.011321 
3202.000000	100.000745 
3201.000000	99.996131  
3200.000000	99.993460  
3199.000000	99.991914  
3198.000000	99.993651  
3197.000000	99.999954  
3196.000000	100.008852 
3195.000000	100.015541 
3194.000000	100.014316 
3193.000000	100.001756 
3192.000000	99.980118  
3191.000000	99.957028  
3190.000000	99.939860  
3189.000000	99.930063  
3188.000000	99.923724  
3187.000000	99.916950  
3186.000000	99.909043  
3185.000000	99.900945  
3184.000000	99.893408  
3183.000000	99.887845  
3182.000000	99.886616  
3181.000000	99.890079  
3180.000000	99.894194  
3179.000000	99.893256  
3178.000000	99.885076  
3177.000000	99.871870  
3176.000000	99.856456  
3175.000000	99.840082  
3174.000000	99.824561  
3173.000000	99.813539  
3172.000000	99.809052  
3171.000000	99.808232  
3170.000000	99.806389  
3169.000000	99.803301  
3168.000000	99.803680  
3167.000000	99.810458  
3166.000000	99.819750  
3165.000000	99.824110  
3164.000000	99.819923  
3163.000000	99.810482  
3162.000000	99.802283  
3161.000000	99.798587  
3160.000000	99.795428  
3159.000000	99.783653  
3158.000000	99.757330  
3157.000000	99.722059  
3156.000000	99.693052  
3155.000000	99.681941  
3154.000000	99.685812  
3153.000000	99.691574  
3152.000000	99.690521  
3151.000000	99.685399  
3150.000000	99.683045  
3149.000000	99.684407  
3148.000000	99.684573  
3147.000000	99.679990  
3146.000000	99.672012  
3145.000000	99.663712  
3144.000000	99.656064  
3143.000000	99.648017  
3142.000000	99.638701  
3141.000000	99.628517  
3140.000000	99.618446  
3139.000000	99.608677  
3138.000000	99.598101  
3137.000000	99.585837  
3136.000000	99.573606  
3135.000000	99.565281  
3134.000000	99.562253  
3133.000000	99.559424  
3132.000000	99.548130  
3131.000000	99.524674  
3130.000000	99.495127  
3129.000000	99.470076  
3128.000000	99.454624  
3127.000000	99.444737  
3126.000000	99.433483  
3125.000000	99.418683  
3124.000000	99.402472  
3123.000000	99.384894  
3122.000000	99.362313  
3121.000000	99.333849  
3120.000000	99.305856  
3119.000000	99.286142  
3118.000000	99.274780  
3117.000000	99.264109  
3116.000000	99.247892  
3115.000000	99.227266  
3114.000000	99.207334  
3113.000000	99.191610  
3112.000000	99.181208  
3111.000000	99.175600  
3110.000000	99.170896  
3109.000000	99.159838  
3108.000000	99.137615  
3107.000000	99.107638  
3106.000000	99.078985  
3105.000000	99.058334  
3104.000000	99.046218  
3103.000000	99.039696  
3102.000000	99.035139  
3101.000000	99.028092  
3100.000000	99.013839  
3099.000000	98.990423  
3098.000000	98.960467  
3097.000000	98.929404  
3096.000000	98.902453  
3095.000000	98.882720  
3094.000000	98.870109  
3093.000000	98.861249  
3092.000000	98.851852  
3091.000000	98.840138  
3090.000000	98.827352  
3089.000000	98.814779  
3088.000000	98.801564  
3087.000000	98.786082  
3086.000000	98.768210  
3085.000000	98.749273  
3084.000000	98.730649  
3083.000000	98.713419  
3082.000000	98.698883  
3081.000000	98.688483  
3080.000000	98.683377  
3079.000000	98.684466  
3078.000000	98.692174  
3077.000000	98.705094  
3076.000000	98.718777  
3075.000000	98.727030  
3074.000000	98.725919  
3073.000000	98.717664  
3072.000000	98.710318  
3071.000000	98.711886  
3070.000000	98.723662  
3069.000000	98.740052  
3068.000000	98.755711  
3067.000000	98.771373  
3066.000000	98.790614  
3065.000000	98.812215  
3064.000000	98.829479  
3063.000000	98.838206  
3062.000000	98.842644  
3061.000000	98.851839  
3060.000000	98.871546  
3059.000000	98.900640  
3058.000000	98.933281  
3057.000000	98.962503  
3056.000000	98.983296  
3055.000000	98.995064  
3054.000000	99.001326  
3053.000000	99.005991  
3052.000000	99.010683  
3051.000000	99.016839  
3050.000000	99.028572  
3049.000000	99.050067  
3048.000000	99.079814  
3047.000000	99.110274  
3046.000000	99.134358  
3045.000000	99.150318  
3044.000000	99.159656  
3043.000000	99.163088  
3042.000000	99.161205  
3041.000000	99.157710  
3040.000000	99.158636  
3039.000000	99.167206  
3038.000000	99.180441  
3037.000000	99.191278  
3036.000000	99.193635  
3035.000000	99.186056  
3034.000000	99.172113  
3033.000000	99.157814  
3032.000000	99.147487  
3031.000000	99.141287  
3030.000000	99.136748  
3029.000000	99.132617  
3028.000000	99.130274  
3027.000000	99.131340  
3026.000000	99.135076  
3025.000000	99.138938  
3024.000000	99.141006  
3023.000000	99.141011  
3022.000000	99.139570  
3021.000000	99.137534  
3020.000000	99.135981  
3019.000000	99.135844  
3018.000000	99.137386  
3017.000000	99.140432  
3016.000000	99.144812  
3015.000000	99.149838  
3014.000000	99.153914  
3013.000000	99.156170  
3012.000000	99.158763  
3011.000000	99.166041  
3010.000000	99.179860  
3009.000000	99.195552  
3008.000000	99.203129  
3007.000000	99.193653  
3006.000000	99.166267  
3005.000000	99.130418  
3004.000000	99.100495  
3003.000000	99.086103  
3002.000000	99.086513  
3001.000000	99.094576  
3000.000000	99.105309  
2999.000000	99.119132  
2998.000000	99.137331  
2997.000000	99.157330  
2996.000000	99.173972  
2995.000000	99.183790  
2994.000000	99.186239  
2993.000000	99.181934  
2992.000000	99.171817  
2991.000000	99.157670  
2990.000000	99.141744  
2989.000000	99.125648  
2988.000000	99.110272  
2987.000000	99.096228  
2986.000000	99.083564  
2985.000000	99.072162  
2984.000000	99.064049  
2983.000000	99.064451  
2982.000000	99.078283  
2981.000000	99.105238  
2980.000000	99.139429  
2979.000000	99.173416  
2978.000000	99.201072  
2977.000000	99.217576  
2976.000000	99.220098  
2975.000000	99.210273  
2974.000000	99.194682  
2973.000000	99.181699  
2972.000000	99.177995  
2971.000000	99.186988  
2970.000000	99.207831  
2969.000000	99.235062  
2968.000000	99.261723  
2967.000000	99.284845  
2966.000000	99.306983  
2965.000000	99.331367  
2964.000000	99.356818  
2963.000000	99.378116  
2962.000000	99.389724  
2961.000000	99.388446  
2960.000000	99.375052  
2959.000000	99.355691  
2958.000000	99.339768  
2957.000000	99.332898  
2956.000000	99.331651  
2955.000000	99.327185  
2954.000000	99.314229  
2953.000000	99.295064  
2952.000000	99.275332  
2951.000000	99.258506  
2950.000000	99.244977  
2949.000000	99.234108  
2948.000000	99.225225  
2947.000000	99.217302  
2946.000000	99.209435  
2945.000000	99.202356  
2944.000000	99.199059  
2943.000000	99.202814  
2942.000000	99.213419  
2941.000000	99.225644  
2940.000000	99.233038  
2939.000000	99.234291  
2938.000000	99.234485  
2937.000000	99.238847  
2936.000000	99.246604  
2935.000000	99.252570  
2934.000000	99.253424  
2933.000000	99.249857  
2932.000000	99.243474  
2931.000000	99.234887  
2930.000000	99.225370  
2929.000000	99.217426  
2928.000000	99.212099  
2927.000000	99.207522  
2926.000000	99.201479  
2925.000000	99.194000  
2924.000000	99.186300  
2923.000000	99.178805  
2922.000000	99.171724  
2921.000000	99.166127  
2920.000000	99.162487  
2919.000000	99.158780  
2918.000000	99.151816  
2917.000000	99.140468  
2916.000000	99.126643  
2915.000000	99.113376  
2914.000000	99.102807  
2913.000000	99.095532  
2912.000000	99.090535  
2911.000000	99.085606  
2910.000000	99.078731  
2909.000000	99.069370  
2908.000000	99.058440  
2907.000000	99.047833  
2906.000000	99.040647  
2905.000000	99.040591  
2904.000000	99.048873  
2903.000000	99.061455  
2902.000000	99.070975  
2901.000000	99.072601  
2900.000000	99.067488  
2899.000000	99.060004  
2898.000000	99.052956  
2897.000000	99.046454  
2896.000000	99.040310  
2895.000000	99.035198  
2894.000000	99.030891  
2893.000000	99.024899  
2892.000000	99.014316  
2891.000000	98.998833  
2890.000000	98.981104  
2889.000000	98.964351  
2888.000000	98.950596  
2887.000000	98.941047  
2886.000000	98.936488  
2885.000000	98.935959  
2884.000000	98.935955  
2883.000000	98.932833  
2882.000000	98.926196  
2881.000000	98.918511  
2880.000000	98.911066  
2879.000000	98.902047  
2878.000000	98.889837  
2877.000000	98.876677  
2876.000000	98.866844  
2875.000000	98.861587  
2874.000000	98.858210  
2873.000000	98.854646  
2872.000000	98.852547  
2871.000000	98.854039  
2870.000000	98.856625  
2869.000000	98.853927  
2868.000000	98.842377  
2867.000000	98.826060  
2866.000000	98.814028  
2865.000000	98.812805  
2864.000000	98.821369  
2863.000000	98.832613  
2862.000000	98.839018  
2861.000000	98.837241  
2860.000000	98.828672  
2859.000000	98.817005  
2858.000000	98.805756  
2857.000000	98.797082  
2856.000000	98.791270  
2855.000000	98.786875  
2854.000000	98.782412  
2853.000000	98.778704  
2852.000000	98.778542  
2851.000000	98.782596  
2850.000000	98.786320  
2849.000000	98.783121  
2848.000000	98.771688  
2847.000000	98.758851  
2846.000000	98.753509  
2845.000000	98.757611  
2844.000000	98.763729  
2843.000000	98.761784  
2842.000000	98.748289  
2841.000000	98.729599  
2840.000000	98.716469  
2839.000000	98.714726  
2838.000000	98.720464  
2837.000000	98.724241  
2836.000000	98.719981  
2835.000000	98.709185  
2834.000000	98.696379  
2833.000000	98.682342  
2832.000000	98.663920  
2831.000000	98.640232  
2830.000000	98.616695  
2829.000000	98.601383  
2828.000000	98.598027  
2827.000000	98.603230  
2826.000000	98.609893  
2825.000000	98.612371  
2824.000000	98.608605  
2823.000000	98.599048  
2822.000000	98.585278  
2821.000000	98.570268  
2820.000000	98.558717  
2819.000000	98.554515  
2818.000000	98.556410  
2817.000000	98.557356  
2816.000000	98.550556  
2815.000000	98.536452  
2814.000000	98.522074  
2813.000000	98.513085  
2812.000000	98.508302  
2811.000000	98.503038  
2810.000000	98.495647  
2809.000000	98.488469  
2808.000000	98.483378  
2807.000000	98.479306  
2806.000000	98.474735  
2805.000000	98.470394  
2804.000000	98.468118  
2803.000000	98.468073  
2802.000000	98.468443  
2801.000000	98.467560  
2800.000000	98.465433  
2799.000000	98.463183  
2798.000000	98.461516  
2797.000000	98.460062  
2796.000000	98.458437  
2795.000000	98.458166  
2794.000000	98.462918  
2793.000000	98.475350  
2792.000000	98.492850  
2791.000000	98.507363  
2790.000000	98.511240  
2789.000000	98.503949  
2788.000000	98.492501  
2787.000000	98.484970  
2786.000000	98.484186  
2785.000000	98.487879  
2784.000000	98.493327  
2783.000000	98.499763  
2782.000000	98.506297  
2781.000000	98.510145  
2780.000000	98.509166  
2779.000000	98.505255  
2778.000000	98.502740  
2777.000000	98.502952  
2776.000000	98.502324  
2775.000000	98.497042  
2774.000000	98.488082  
2773.000000	98.479815  
2772.000000	98.474233  
2771.000000	98.468551  
2770.000000	98.459181  
2769.000000	98.446969  
2768.000000	98.437487  
2767.000000	98.436157  
2766.000000	98.443339  
2765.000000	98.454140  
2764.000000	98.462906  
2763.000000	98.467592  
2762.000000	98.469547  
2761.000000	98.469801  
2760.000000	98.467300  
2759.000000	98.461487  
2758.000000	98.454973  
2757.000000	98.451554  
2756.000000	98.451576  
2755.000000	98.450657  
2754.000000	98.443409  
2753.000000	98.427839  
2752.000000	98.406525  
2751.000000	98.384754  
2750.000000	98.367310  
2749.000000	98.355184  
2748.000000	98.344498  
2747.000000	98.329933  
2746.000000	98.310420  
2745.000000	98.290900  
2744.000000	98.277640  
2743.000000	98.272394  
2742.000000	98.271808  
2741.000000	98.271534  
2740.000000	98.269421  
2739.000000	98.265147  
2738.000000	98.258873  
2737.000000	98.251346  
2736.000000	98.244252  
2735.000000	98.239027  
2734.000000	98.235341  
2733.000000	98.231699  
2732.000000	98.227663  
2731.000000	98.224540  
2730.000000	98.223323  
2729.000000	98.222739  
2728.000000	98.220407  
2727.000000	98.215772  
2726.000000	98.210862  
2725.000000	98.208037  
2724.000000	98.207910  
2723.000000	98.209671  
2722.000000	98.212264  
2721.000000	98.214676  
2720.000000	98.216377  
2719.000000	98.218552  
2718.000000	98.223776  
2717.000000	98.232953  
2716.000000	98.243344  
2715.000000	98.251460  
2714.000000	98.257555  
2713.000000	98.265145  
2712.000000	98.275755  
2711.000000	98.286080  
2710.000000	98.291460  
2709.000000	98.291127  
2708.000000	98.289344  
2707.000000	98.292268  
2706.000000	98.304074  
2705.000000	98.324647  
2704.000000	98.349894  
2703.000000	98.374830  
2702.000000	98.396963  
2701.000000	98.416343  
2700.000000	98.432957  
2699.000000	98.446199  
2698.000000	98.457257  
2697.000000	98.469113  
2696.000000	98.482103  
2695.000000	98.491787  
2694.000000	98.494605  
2693.000000	98.494734  
2692.000000	98.501628  
2691.000000	98.520013  
2690.000000	98.545028  
2689.000000	98.568299  
2688.000000	98.586207  
2687.000000	98.600360  
2686.000000	98.612433  
2685.000000	98.621946  
2684.000000	98.628840  
2683.000000	98.635333  
2682.000000	98.643904  
2681.000000	98.654679  
2680.000000	98.665698  
2679.000000	98.675061  
2678.000000	98.682118  
2677.000000	98.687258  
2676.000000	98.691538  
2675.000000	98.696327  
2674.000000	98.702449  
2673.000000	98.709355  
2672.000000	98.715604  
2671.000000	98.720304  
2670.000000	98.723694  
2669.000000	98.726243  
2668.000000	98.728005  
2667.000000	98.729500  
2666.000000	98.732421  
2665.000000	98.737973  
2664.000000	98.744306  
2663.000000	98.746971  
2662.000000	98.743121  
2661.000000	98.735007  
2660.000000	98.728413  
2659.000000	98.727419  
2658.000000	98.730748  
2657.000000	98.733000  
2656.000000	98.729151  
2655.000000	98.718293  
2654.000000	98.703620  
2653.000000	98.689065  
2652.000000	98.676237  
2651.000000	98.664755  
2650.000000	98.654473  
2649.000000	98.645370  
2648.000000	98.635119  
2647.000000	98.619451  
2646.000000	98.597051  
2645.000000	98.572587  
2644.000000	98.552376  
2643.000000	98.537685  
2642.000000	98.524667  
2641.000000	98.510330  
2640.000000	98.495330  
2639.000000	98.480445  
2638.000000	98.463888  
2637.000000	98.444305  
2636.000000	98.424034  
2635.000000	98.406582  
2634.000000	98.391964  
2633.000000	98.377144  
2632.000000	98.360823  
2631.000000	98.345587  
2630.000000	98.334965  
2629.000000	98.329831  
2628.000000	98.327914  
2627.000000	98.325588  
2626.000000	98.319880  
2625.000000	98.309886  
2624.000000	98.296878  
2623.000000	98.282547  
2622.000000	98.267121  
2621.000000	98.249875  
2620.000000	98.231397  
2619.000000	98.214338  
2618.000000	98.201340  
2617.000000	98.192498  
2616.000000	98.184884  
2615.000000	98.174178  
2614.000000	98.157008  
2613.000000	98.132845  
2612.000000	98.104564  
2611.000000	98.077106  
2610.000000	98.054714  
2609.000000	98.038343  
2608.000000	98.025143  
2607.000000	98.011257  
2606.000000	97.996499  
2605.000000	97.986201  
2604.000000	97.986514  
2603.000000	97.996800  
2602.000000	98.008167  
2601.000000	98.011215  
2600.000000	98.004533  
2599.000000	97.993957  
2598.000000	97.984537  
2597.000000	97.976068  
2596.000000	97.966782  
2595.000000	97.958486  
2594.000000	97.955986  
2593.000000	97.962459  
2592.000000	97.976764  
2591.000000	97.994489  
2590.000000	98.010433  
2589.000000	98.021006  
2588.000000	98.026341  
2587.000000	98.030732  
2586.000000	98.040115  
2585.000000	98.057999  
2584.000000	98.082724  
2583.000000	98.107599  
2582.000000	98.124039  
2581.000000	98.127086  
2580.000000	98.120166  
2579.000000	98.113951  
2578.000000	98.118555  
2577.000000	98.136196  
2576.000000	98.162004  
2575.000000	98.191005  
2574.000000	98.221802  
2573.000000	98.253049  
2572.000000	98.279526  
2571.000000	98.294936  
2570.000000	98.298317  
2569.000000	98.295531  
2568.000000	98.294035  
2567.000000	98.297558  
2566.000000	98.305799  
2565.000000	98.316742  
2564.000000	98.327626  
2563.000000	98.335401  
2562.000000	98.338895  
2561.000000	98.340596  
2560.000000	98.344492  
2559.000000	98.351879  
2558.000000	98.360618  
2557.000000	98.368420  
2556.000000	98.374873  
2555.000000	98.379771  
2554.000000	98.381910  
2553.000000	98.381332  
2552.000000	98.381126  
2551.000000	98.384545  
2550.000000	98.390765  
2549.000000	98.395362  
2548.000000	98.394894  
2547.000000	98.389467  
2546.000000	98.381147  
2545.000000	98.372077  
2544.000000	98.364755  
2543.000000	98.362045  
2542.000000	98.365017  
2541.000000	98.370955  
2540.000000	98.374560  
2539.000000	98.371768  
2538.000000	98.363056  
2537.000000	98.353545  
2536.000000	98.349183  
2535.000000	98.351434  
2534.000000	98.355533  
2533.000000	98.354961  
2532.000000	98.347781  
2531.000000	98.337693  
2530.000000	98.329156  
2529.000000	98.323260  
2528.000000	98.319090  
2527.000000	98.317421  
2526.000000	98.321122  
2525.000000	98.331604  
2524.000000	98.345348  
2523.000000	98.354143  
2522.000000	98.349606  
2521.000000	98.329435  
2520.000000	98.300474  
2519.000000	98.275037  
2518.000000	98.263141  
2517.000000	98.267645  
2516.000000	98.285492  
2515.000000	98.311322  
2514.000000	98.338958  
2513.000000	98.361825  
2512.000000	98.375247  
2511.000000	98.379175  
2510.000000	98.377386  
2509.000000	98.373546  
2508.000000	98.369046  
2507.000000	98.365025  
2506.000000	98.365089  
2505.000000	98.374104  
2504.000000	98.393395  
2503.000000	98.417631  
2502.000000	98.437627  
2501.000000	98.447332  
2500.000000	98.448687  
2499.000000	98.449858  
2498.000000	98.458658  
2497.000000	98.476932  
2496.000000	98.499887  
2495.000000	98.520076  
2494.000000	98.533050  
2493.000000	98.540448  
2492.000000	98.547404  
2491.000000	98.556130  
2490.000000	98.562977  
2489.000000	98.563645  
2488.000000	98.560636  
2487.000000	98.562428  
2486.000000	98.573860  
2485.000000	98.589568  
2484.000000	98.599538  
2483.000000	98.600439  
2482.000000	98.598937  
2481.000000	98.603359  
2480.000000	98.614243  
2479.000000	98.624952  
2478.000000	98.630455  
2477.000000	98.632616  
2476.000000	98.635549  
2475.000000	98.638367  
2474.000000	98.636294  
2473.000000	98.628805  
2472.000000	98.622209  
2471.000000	98.621695  
2470.000000	98.624360  
2469.000000	98.624405  
2468.000000	98.623378  
2467.000000	98.630027  
2466.000000	98.649523  
2465.000000	98.676893  
2464.000000	98.701911  
2463.000000	98.716611  
2462.000000	98.717440  
2461.000000	98.705709  
2460.000000	98.689535  
2459.000000	98.681130  
2458.000000	98.686683  
2457.000000	98.699563  
2456.000000	98.706568  
2455.000000	98.700174  
2454.000000	98.683107  
2453.000000	98.663988  
2452.000000	98.652678  
2451.000000	98.657552  
2450.000000	98.681068  
2449.000000	98.716259  
2448.000000	98.751000  
2447.000000	98.777237  
2446.000000	98.794122  
2445.000000	98.802937  
2444.000000	98.803461  
2443.000000	98.797010  
2442.000000	98.789312  
2441.000000	98.786927  
2440.000000	98.791516  
2439.000000	98.799165  
2438.000000	98.804670  
2437.000000	98.805923  
2436.000000	98.805597  
2435.000000	98.809492  
2434.000000	98.821559  
2433.000000	98.838929  
2432.000000	98.852767  
2431.000000	98.855784  
2430.000000	98.849045  
2429.000000	98.840818  
2428.000000	98.838923  
2427.000000	98.844316  
2426.000000	98.851364  
2425.000000	98.853774  
2424.000000	98.850690  
2423.000000	98.847376  
2422.000000	98.849785  
2421.000000	98.858754  
2420.000000	98.870327  
2419.000000	98.881112  
2418.000000	98.891079  
2417.000000	98.900271  
2416.000000	98.905373  
2415.000000	98.902885  
2414.000000	98.895578  
2413.000000	98.892352  
2412.000000	98.899351  
2411.000000	98.912889  
2410.000000	98.924290  
2409.000000	98.931369  
2408.000000	98.941131  
2407.000000	98.959150  
2406.000000	98.980095  
2405.000000	98.993316  
2404.000000	98.996221  
2403.000000	98.996685  
2402.000000	99.001719  
2401.000000	99.009362  
2400.000000	99.014264  
2399.000000	99.016349  
2398.000000	99.019327  
2397.000000	99.023597  
2396.000000	99.026103  
2395.000000	99.026278  
2394.000000	99.027122  
2393.000000	99.029748  
2392.000000	99.030980  
2391.000000	99.027945  
2390.000000	99.022219  
2389.000000	99.017989  
2388.000000	99.017933  
2387.000000	99.021886  
2386.000000	99.028009  
2385.000000	99.034832  
2384.000000	99.043980  
2383.000000	99.061050  
2382.000000	99.090934  
2381.000000	99.130772  
2380.000000	99.170237  
2379.000000	99.201146  
2378.000000	99.224728  
2377.000000	99.246269  
2376.000000	99.264403  
2375.000000	99.272290  
2374.000000	99.269960  
2373.000000	99.269624  
2372.000000	99.283937  
2371.000000	99.309180  
2370.000000	99.324195  
2369.000000	99.308251  
2368.000000	99.260178  
2367.000000	99.200233  
2366.000000	99.155511  
2365.000000	99.143748  
2364.000000	99.163379  
2363.000000	99.199139  
2362.000000	99.243478  
2361.000000	99.293500  
2360.000000	99.330852  
2359.000000	99.326803  
2358.000000	99.273309  
2357.000000	99.212185  
2356.000000	99.197995  
2355.000000	99.238061  
2354.000000	99.289526  
2353.000000	99.309806  
2352.000000	99.306238  
2351.000000	99.303454  
2350.000000	99.306376  
2349.000000	99.305724  
2348.000000	99.296015  
2347.000000	99.284513  
2346.000000	99.268325  
2345.000000	99.247239  
2344.000000	99.232772  
2343.000000	99.239298  
2342.000000	99.275805  
2341.000000	99.324921  
2340.000000	99.367331  
2339.000000	99.397149  
2338.000000	99.420410  
2337.000000	99.432374  
2336.000000	99.420265  
2335.000000	99.386791  
2334.000000	99.354216  
2333.000000	99.337293  
2332.000000	99.330205  
2331.000000	99.318612  
2330.000000	99.298657  
2329.000000	99.275278  
2328.000000	99.235075  
2327.000000	99.172520  
2326.000000	99.094132  
2325.000000	99.030563  
2324.000000	99.002843  
2323.000000	99.008254  
2322.000000	99.028343  
2321.000000	99.044167  
2320.000000	99.052763  
2319.000000	99.057094  
2318.000000	99.062406  
2317.000000	99.069042  
2316.000000	99.074650  
2315.000000	99.079869  
2314.000000	99.087738  
2313.000000	99.102734  
2312.000000	99.118406  
2311.000000	99.124393  
2310.000000	99.110744  
2309.000000	99.083249  
2308.000000	99.054944  
2307.000000	99.039799  
2306.000000	99.036870  
2305.000000	99.035299  
2304.000000	99.023117  
2303.000000	99.001050  
2302.000000	98.978998  
2301.000000	98.967130  
2300.000000	98.965542  
2299.000000	98.967855  
2298.000000	98.964426  
2297.000000	98.950261  
2296.000000	98.927160  
2295.000000	98.908756  
2294.000000	98.908704  
2293.000000	98.927779  
2292.000000	98.947891  
2291.000000	98.951044  
2290.000000	98.936977  
2289.000000	98.922683  
2288.000000	98.923056  
2287.000000	98.938358  
2286.000000	98.957771  
2285.000000	98.970024  
2284.000000	98.971561  
2283.000000	98.969966  
2282.000000	98.981225  
2281.000000	99.015542  
2280.000000	99.063525  
2279.000000	99.100305  
2278.000000	99.109563  
2277.000000	99.099170  
2276.000000	99.090070  
2275.000000	99.091645  
2274.000000	99.093886  
2273.000000	99.083242  
2272.000000	99.060364  
2271.000000	99.040557  
2270.000000	99.038914  
2269.000000	99.057690  
2268.000000	99.086030  
2267.000000	99.109137  
2266.000000	99.117549  
2265.000000	99.112196  
2264.000000	99.103703  
2263.000000	99.104486  
2262.000000	99.115009  
2261.000000	99.119254  
2260.000000	99.101742  
2259.000000	99.071776  
2258.000000	99.061766  
2257.000000	99.092300  
2256.000000	99.145750  
2255.000000	99.184386  
2254.000000	99.191781  
2253.000000	99.183706  
2252.000000	99.180353  
2251.000000	99.184264  
2250.000000	99.189549  
2249.000000	99.197555  
2248.000000	99.212030  
2247.000000	99.228431  
2246.000000	99.238744  
2245.000000	99.241790  
2244.000000	99.238919  
2243.000000	99.225464  
2242.000000	99.198776  
2241.000000	99.172940  
2240.000000	99.172725  
2239.000000	99.209146  
2238.000000	99.266940  
2237.000000	99.316177  
2236.000000	99.331275  
2235.000000	99.302558  
2234.000000	99.242222  
2233.000000	99.182800  
2232.000000	99.158417  
2231.000000	99.178625  
2230.000000	99.223619  
2229.000000	99.267415  
2228.000000	99.300673  
2227.000000	99.328122  
2226.000000	99.351878  
2225.000000	99.366395  
2224.000000	99.367181  
2223.000000	99.356353  
2222.000000	99.338084  
2221.000000	99.312648  
2220.000000	99.277205  
2219.000000	99.233197  
2218.000000	99.193582  
2217.000000	99.178958  
2216.000000	99.199167  
2215.000000	99.238761  
2214.000000	99.269237  
2213.000000	99.279365  
2212.000000	99.285222  
2211.000000	99.304248  
2210.000000	99.329062  
2209.000000	99.339049  
2208.000000	99.332448  
2207.000000	99.330505  
2206.000000	99.346608  
2205.000000	99.365310  
2204.000000	99.361563  
2203.000000	99.334025  
2202.000000	99.308786  
2201.000000	99.310518  
2200.000000	99.336365  
2199.000000	99.360090  
2198.000000	99.357671  
2197.000000	99.326060  
2196.000000	99.280027  
2195.000000	99.236594  
2194.000000	99.205643  
2193.000000	99.190699  
2192.000000	99.190235  
2191.000000	99.196338  
2190.000000	99.198607  
2189.000000	99.194625  
2188.000000	99.193732  
2187.000000	99.205931  
2186.000000	99.230030  
2185.000000	99.257594  
2184.000000	99.285163  
2183.000000	99.314480  
2182.000000	99.341220  
2181.000000	99.352749  
2180.000000	99.340964  
2179.000000	99.311919  
2178.000000	99.280360  
2177.000000	99.258171  
2176.000000	99.247154  
2175.000000	99.238596  
2174.000000	99.220497  
2173.000000	99.190025  
2172.000000	99.159190  
2171.000000	99.143996  
2170.000000	99.148310  
2169.000000	99.162632  
2168.000000	99.177335  
2167.000000	99.188417  
2166.000000	99.187580  
2165.000000	99.158382  
2164.000000	99.095153  
2163.000000	99.025029  
2162.000000	99.003152  
2161.000000	99.077782  
2160.000000	99.248432  
2159.000000	99.453405  
2158.000000	99.609144  
2157.000000	99.671461  
2156.000000	99.655565  
2155.000000	99.601697  
2154.000000	99.538059  
2153.000000	99.477109  
2152.000000	99.428931  
2151.000000	99.402560  
2150.000000	99.396648  
2149.000000	99.401180  
2148.000000	99.410926  
2147.000000	99.427572  
2146.000000	99.446450  
2145.000000	99.452963  
2144.000000	99.437653  
2143.000000	99.404913  
2142.000000	99.361846  
2141.000000	99.309470  
2140.000000	99.252696  
2139.000000	99.209305  
2138.000000	99.196899  
2137.000000	99.213824  
2136.000000	99.242315  
2135.000000	99.268599  
2134.000000	99.290270  
2133.000000	99.305326  
2132.000000	99.305566  
2131.000000	99.284509  
2130.000000	99.245371  
2129.000000	99.198092  
2128.000000	99.151850  
2127.000000	99.112740  
2126.000000	99.085891  
2125.000000	99.075163  
2124.000000	99.078472  
2123.000000	99.084460  
2122.000000	99.077903  
2121.000000	99.053292  
2120.000000	99.022632  
2119.000000	99.003660  
2118.000000	98.998707  
2117.000000	98.991746  
2116.000000	98.970040  
2115.000000	98.940949  
2114.000000	98.919452  
2113.000000	98.906163  
2112.000000	98.890587  
2111.000000	98.873669  
2110.000000	98.871343  
2109.000000	98.891030  
2108.000000	98.917630  
2107.000000	98.931536  
2106.000000	98.931342  
2105.000000	98.929144  
2104.000000	98.930216  
2103.000000	98.929709  
2102.000000	98.928577  
2101.000000	98.941412  
2100.000000	98.982553  
2099.000000	99.047487  
2098.000000	99.111568  
2097.000000	99.148183  
2096.000000	99.150589  
2095.000000	99.137000  
2094.000000	99.133105  
2093.000000	99.148787  
2092.000000	99.171221  
2091.000000	99.177981  
2090.000000	99.154910  
2089.000000	99.105900  
2088.000000	99.052363  
2087.000000	99.022665  
2086.000000	99.033572  
2085.000000	99.075722  
2084.000000	99.120848  
2083.000000	99.148241  
2082.000000	99.160583  
2081.000000	99.171043  
2080.000000	99.181913  
2079.000000	99.184596  
2078.000000	99.177480  
2077.000000	99.171880  
2076.000000	99.176372  
2075.000000	99.182864  
2074.000000	99.175392  
2073.000000	99.151469  
2072.000000	99.129399  
2071.000000	99.132564  
2070.000000	99.167277  
2069.000000	99.215884  
2068.000000	99.251587  
2067.000000	99.260352  
2066.000000	99.248513  
2065.000000	99.232052  
2064.000000	99.222697  
2063.000000	99.224970  
2062.000000	99.239364  
2061.000000	99.259565  
2060.000000	99.268668  
2059.000000	99.249484  
2058.000000	99.204985  
2057.000000	99.163308  
2056.000000	99.153465  
2055.000000	99.174144  
2054.000000	99.191849  
2053.000000	99.173926  
2052.000000	99.121659  
2051.000000	99.069091  
2050.000000	99.051409  
2049.000000	99.073509  
2048.000000	99.109044  
2047.000000	99.132382  
2046.000000	99.145902  
2045.000000	99.171797  
2044.000000	99.221688  
2043.000000	99.280100  
2042.000000	99.318269  
2041.000000	99.319782  
2040.000000	99.289741  
2039.000000	99.241653  
2038.000000	99.185696  
2037.000000	99.134708  
2036.000000	99.111802  
2035.000000	99.138864  
2034.000000	99.214930  
2033.000000	99.310676  
2032.000000	99.386669  
2031.000000	99.415488  
2030.000000	99.393195  
2029.000000	99.344986  
2028.000000	99.316461  
2027.000000	99.338328  
2026.000000	99.392097  
2025.000000	99.425376  
2024.000000	99.411754  
2023.000000	99.383216  
2022.000000	99.390896  
2021.000000	99.445464  
2020.000000	99.509551  
2019.000000	99.540383  
2018.000000	99.523145  
2017.000000	99.470655  
2016.000000	99.410590  
2015.000000	99.373248  
2014.000000	99.375802  
2013.000000	99.409051  
2012.000000	99.444604  
2011.000000	99.460162  
2010.000000	99.456322  
2009.000000	99.453996  
2008.000000	99.480849  
2007.000000	99.549958  
2006.000000	99.637402  
2005.000000	99.689136  
2004.000000	99.669005  
2003.000000	99.598452  
2002.000000	99.534817  
2001.000000	99.511670  
2000.000000	99.512610  
1999.000000	99.501651  
1998.000000	99.464406  
1997.000000	99.414827  
1996.000000	99.377009  
1995.000000	99.369719  
1994.000000	99.397779  
1993.000000	99.444977  
1992.000000	99.481586  
1991.000000	99.490205  
1990.000000	99.478010  
1989.000000	99.458548  
1988.000000	99.434028  
1987.000000	99.403480  
1986.000000	99.375464  
1985.000000	99.358654  
1984.000000	99.347368  
1983.000000	99.332172  
1982.000000	99.321430  
1981.000000	99.335080  
1980.000000	99.375107  
1979.000000	99.414635  
1978.000000	99.427525  
1977.000000	99.423075  
1976.000000	99.438688  
1975.000000	99.496974  
1974.000000	99.579009  
1973.000000	99.641076  
1972.000000	99.656495  
1971.000000	99.638492  
1970.000000	99.619454  
1969.000000	99.612891  
1968.000000	99.603853  
1967.000000	99.576610  
1966.000000	99.539201  
1965.000000	99.512990  
1964.000000	99.510030  
1963.000000	99.530869  
1962.000000	99.571719  
1961.000000	99.619410  
1960.000000	99.647825  
1959.000000	99.637760  
1958.000000	99.600614  
1957.000000	99.570249  
1956.000000	99.569939  
1955.000000	99.595195  
1954.000000	99.626263  
1953.000000	99.646732  
1952.000000	99.647974  
1951.000000	99.629069  
1950.000000	99.599119  
1949.000000	99.573896  
1948.000000	99.564058  
1947.000000	99.567378  
1946.000000	99.573909  
1945.000000	99.575404  
1944.000000	99.568418  
1943.000000	99.553361  
1942.000000	99.533667  
1941.000000	99.513211  
1940.000000	99.494315  
1939.000000	99.480380  
1938.000000	99.477619  
1937.000000	99.490160  
1936.000000	99.514254  
1935.000000	99.540927  
1934.000000	99.562589  
1933.000000	99.573789  
1932.000000	99.569627  
1931.000000	99.555201  
1930.000000	99.551981  
1929.000000	99.581588  
1928.000000	99.639669  
1927.000000	99.692544  
1926.000000	99.709507  
1925.000000	99.688506  
1924.000000	99.650225  
1923.000000	99.614864  
1922.000000	99.590880  
1921.000000	99.580717  
1920.000000	99.585965  
1919.000000	99.601653  
1918.000000	99.615109  
1917.000000	99.616343  
1916.000000	99.607656  
1915.000000	99.598232  
1914.000000	99.593426  
1913.000000	99.592669  
1912.000000	99.593767  
1911.000000	99.595897  
1910.000000	99.596906  
1909.000000	99.592493  
1908.000000	99.581902  
1907.000000	99.569849  
1906.000000	99.564056  
1905.000000	99.567479  
1904.000000	99.577898  
1903.000000	99.594018  
1902.000000	99.614893  
1901.000000	99.633170  
1900.000000	99.636217  
1899.000000	99.617028  
1898.000000	99.585073  
1897.000000	99.560267  
1896.000000	99.555615  
1895.000000	99.567195  
1894.000000	99.580691  
1893.000000	99.586244  
1892.000000	99.586609  
1891.000000	99.591593  
1890.000000	99.606444  
1889.000000	99.625333  
1888.000000	99.636991  
1887.000000	99.637456  
1886.000000	99.633236  
1885.000000	99.632644  
1884.000000	99.637347  
1883.000000	99.643781  
1882.000000	99.648003  
1881.000000	99.647056  
1880.000000	99.639396  
1879.000000	99.626688  
1878.000000	99.616145  
1877.000000	99.615875  
1876.000000	99.624823  
1875.000000	99.633123  
1874.000000	99.633650  
1873.000000	99.628375  
1872.000000	99.622536  
1871.000000	99.616338  
1870.000000	99.606208  
1869.000000	99.594641  
1868.000000	99.591136  
1867.000000	99.599008  
1866.000000	99.611474  
1865.000000	99.621830  
1864.000000	99.629924  
1863.000000	99.637507  
1862.000000	99.640617  
1861.000000	99.631089  
1860.000000	99.607871  
1859.000000	99.582915  
1858.000000	99.571511  
1857.000000	99.577088  
1856.000000	99.588677  
1855.000000	99.594079  
1854.000000	99.591668  
1853.000000	99.587002  
1852.000000	99.587094  
1851.000000	99.594036  
1850.000000	99.605846  
1849.000000	99.618271  
1848.000000	99.626390  
1847.000000	99.627834  
1846.000000	99.623809  
1845.000000	99.617691  
1844.000000	99.615887  
1843.000000	99.623724  
1842.000000	99.637680  
1841.000000	99.648941  
1840.000000	99.650038  
1839.000000	99.639017  
1838.000000	99.624693  
1837.000000	99.618610  
1836.000000	99.621784  
1835.000000	99.625108  
1834.000000	99.623363  
1833.000000	99.622704  
1832.000000	99.630716  
1831.000000	99.640711  
1830.000000	99.643268  
1829.000000	99.645680  
1828.000000	99.659266  
1827.000000	99.678985  
1826.000000	99.688194  
1825.000000	99.681266  
1824.000000	99.670905  
1823.000000	99.667661  
1822.000000	99.667770  
1821.000000	99.665970  
1820.000000	99.666157  
1819.000000	99.674265  
1818.000000	99.689686  
1817.000000	99.704818  
1816.000000	99.712197  
1815.000000	99.708990  
1814.000000	99.695679  
1813.000000	99.678498  
1812.000000	99.666565  
1811.000000	99.665463  
1810.000000	99.672851  
1809.000000	99.680139  
1808.000000	99.681751  
1807.000000	99.679506  
1806.000000	99.676756  
1805.000000	99.672117  
1804.000000	99.661430  
1803.000000	99.645408  
1802.000000	99.629786  
1801.000000	99.624170  
1800.000000	99.632226  
1799.000000	99.647138  
1798.000000	99.657212  
1797.000000	99.655247  
1796.000000	99.643841  
1795.000000	99.632455  
1794.000000	99.627070  
1793.000000	99.627295  
1792.000000	99.630688  
1791.000000	99.636123  
1790.000000	99.640761  
1789.000000	99.642926  
1788.000000	99.645025  
1787.000000	99.649725  
1786.000000	99.655583  
1785.000000	99.659384  
1784.000000	99.662097  
1783.000000	99.667629  
1782.000000	99.670532  
1781.000000	99.664324  
1780.000000	99.651603  
1779.000000	99.641625  
1778.000000	99.635983  
1777.000000	99.626616  
1776.000000	99.610922  
1775.000000	99.596319  
1774.000000	99.587516  
1773.000000	99.579410  
1772.000000	99.571893  
1771.000000	99.571371  
1770.000000	99.578022  
1769.000000	99.585883  
1768.000000	99.589511  
1767.000000	99.589180  
1766.000000	99.586666  
1765.000000	99.582302  
1764.000000	99.573154  
1763.000000	99.554314  
1762.000000	99.526827  
1761.000000	99.505831  
1760.000000	99.500808  
1759.000000	99.504980  
1758.000000	99.500685  
1757.000000	99.479349  
1756.000000	99.456116  
1755.000000	99.447644  
1754.000000	99.452633  
1753.000000	99.461821  
1752.000000	99.474039  
1751.000000	99.496803  
1750.000000	99.535165  
1749.000000	99.579455  
1748.000000	99.618282  
1747.000000	99.648698  
1746.000000	99.671074  
1745.000000	99.690926  
1744.000000	99.718573  
1743.000000	99.764025  
1742.000000	99.828960  
1741.000000	99.905929  
1740.000000	99.983735  
1739.000000	100.057315 
1738.000000	100.125375 
1737.000000	100.194843 
1736.000000	100.284357 
1735.000000	100.405146 
1734.000000	100.549252 
1733.000000	100.696995 
1732.000000	100.832534 
1731.000000	100.960069 
1730.000000	101.089709 
1729.000000	101.224264 
1728.000000	101.362762 
1727.000000	101.503877 
1726.000000	101.641993 
1725.000000	101.765951 
1724.000000	101.858000 
1723.000000	101.904869 
1722.000000	101.906503 
1721.000000	101.874836 
1720.000000	101.825109 
1719.000000	101.760264 
1718.000000	101.676153 
1717.000000	101.582681 
1716.000000	101.493417 
1715.000000	101.411682 
1714.000000	101.338214 
1713.000000	101.271947 
1712.000000	101.206252 
1711.000000	101.132618 
1710.000000	101.047234 
1709.000000	100.956015 
1708.000000	100.869825 
1707.000000	100.787765 
1706.000000	100.699411 
1705.000000	100.603812 
1704.000000	100.510574 
1703.000000	100.428944 
1702.000000	100.362476 
1701.000000	100.303164 
1700.000000	100.259539 
1699.000000	100.243088 
1698.000000	100.236244 
1697.000000	100.217100 
1696.000000	100.182575 
1695.000000	100.159847 
1694.000000	100.161918 
1693.000000	100.174143 
1692.000000	100.182666 
1691.000000	100.181707 
1690.000000	100.167026 
1689.000000	100.136309 
1688.000000	100.099457 
1687.000000	100.074852 
1686.000000	100.077196 
1685.000000	100.086336 
1684.000000	100.081015 
1683.000000	100.079473 
1682.000000	100.086622 
1681.000000	100.091201 
1680.000000	100.088529 
1679.000000	100.082032 
1678.000000	100.076041 
1677.000000	100.070853 
1676.000000	100.061403 
1675.000000	100.049324 
1674.000000	100.040102 
1673.000000	100.033369 
1672.000000	100.023280 
1671.000000	100.004729 
1670.000000	99.975229  
1669.000000	99.941284  
1668.000000	99.911519  
1667.000000	99.885787  
1666.000000	99.861696  
1665.000000	99.839770  
1664.000000	99.815116  
1663.000000	99.781787  
1662.000000	99.740249  
1661.000000	99.695163  
1660.000000	99.648372  
1659.000000	99.596438  
1658.000000	99.533497  
1657.000000	99.461683  
1656.000000	99.400191  
1655.000000	99.370485  
1654.000000	99.350246  
1653.000000	99.318026  
1652.000000	99.303654  
1651.000000	99.302745  
1650.000000	99.295803  
1649.000000	99.275030  
1648.000000	99.232501  
1647.000000	99.167273  
1646.000000	99.101903  
1645.000000	99.051018  
1644.000000	99.005047  
1643.000000	98.954380  
1642.000000	98.894209  
1641.000000	98.823336  
1640.000000	98.746820  
1639.000000	98.672334  
1638.000000	98.603425  
1637.000000	98.525644  
1636.000000	98.424706  
1635.000000	98.319251  
1634.000000	98.229626  
1633.000000	98.143995  
1632.000000	98.048295  
1631.000000	97.945835  
1630.000000	97.845094  
1629.000000	97.746216  
1628.000000	97.647630  
1627.000000	97.559704  
1626.000000	97.495115  
1625.000000	97.455898  
1624.000000	97.432001  
1623.000000	97.415044  
1622.000000	97.402007  
1621.000000	97.388211  
1620.000000	97.373321  
1619.000000	97.367399  
1618.000000	97.383887  
1617.000000	97.426643  
1616.000000	97.488728  
1615.000000	97.549599  
1614.000000	97.587359  
1613.000000	97.594305  
1612.000000	97.575274  
1611.000000	97.538797  
1610.000000	97.484222  
1609.000000	97.399559  
1608.000000	97.272690  
1607.000000	97.102336  
1606.000000	96.893423  
1605.000000	96.653348  
1604.000000	96.392818  
1603.000000	96.122457  
1602.000000	95.846152  
1601.000000	95.560378  
1600.000000	95.265165  
1599.000000	94.969010  
1598.000000	94.678665  
1597.000000	94.392856  
1596.000000	94.113188  
1595.000000	93.855828  
1594.000000	93.641093  
1593.000000	93.477325  
1592.000000	93.364957  
1591.000000	93.307083  
1590.000000	93.303412  
1589.000000	93.343518  
1588.000000	93.417119  
1587.000000	93.522410  
1586.000000	93.656359  
1585.000000	93.806108  
1584.000000	93.964687  
1583.000000	94.135517  
1582.000000	94.313751  
1581.000000	94.476482  
1580.000000	94.606607  
1579.000000	94.716507  
1578.000000	94.841549  
1577.000000	95.007413  
1576.000000	95.201185  
1575.000000	95.378777  
1574.000000	95.504054  
1573.000000	95.581154  
1572.000000	95.641970  
1571.000000	95.718353  
1570.000000	95.818136  
1569.000000	95.922394  
1568.000000	96.014899  
1567.000000	96.098359  
1566.000000	96.183702  
1565.000000	96.267981  
1564.000000	96.334308  
1563.000000	96.365545  
1562.000000	96.370960  
1561.000000	96.395558  
1560.000000	96.491909  
1559.000000	96.657768  
1558.000000	96.836303  
1557.000000	96.956304  
1556.000000	97.016566  
1555.000000	97.058058  
1554.000000	97.108369  
1553.000000	97.171227  
1552.000000	97.236103  
1551.000000	97.293511  
1550.000000	97.338683  
1549.000000	97.366620  
1548.000000	97.377590  
1547.000000	97.381647  
1546.000000	97.391345  
1545.000000	97.408454  
1544.000000	97.424745  
1543.000000	97.434545  
1542.000000	97.446500  
1541.000000	97.464687  
1540.000000	97.481926  
1539.000000	97.500414  
1538.000000	97.512849  
1537.000000	97.507333  
1536.000000	97.488641  
1535.000000	97.470468  
1534.000000	97.455443  
1533.000000	97.439290  
1532.000000	97.416648  
1531.000000	97.385870  
1530.000000	97.356494  
1529.000000	97.340948  
1528.000000	97.344190  
1527.000000	97.362185  
1526.000000	97.384285  
1525.000000	97.399722  
1524.000000	97.404778  
1523.000000	97.404084  
1522.000000	97.403038  
1521.000000	97.406552  
1520.000000	97.413744  
1519.000000	97.417908  
1518.000000	97.421411  
1517.000000	97.435108  
1516.000000	97.465563  
1515.000000	97.507439  
1514.000000	97.553759  
1513.000000	97.607009  
1512.000000	97.665024  
1511.000000	97.716679  
1510.000000	97.758254  
1509.000000	97.806879  
1508.000000	97.881793  
1507.000000	97.982242  
1506.000000	98.103751  
1505.000000	98.221346  
1504.000000	98.310480  
1503.000000	98.375310  
1502.000000	98.433876  
1501.000000	98.500920  
1500.000000	98.581137  
1499.000000	98.672357  
1498.000000	98.774228  
1497.000000	98.887796  
1496.000000	99.004697  
1495.000000	99.111254  
1494.000000	99.200182  
1493.000000	99.276786  
1492.000000	99.355518  
1491.000000	99.449834  
1490.000000	99.559090  
1489.000000	99.666392  
1488.000000	99.751941  
1487.000000	99.813378  
1486.000000	99.861125  
1485.000000	99.897156  
1484.000000	99.920573  
1483.000000	99.934786  
1482.000000	99.946064  
1481.000000	99.956105  
1480.000000	99.961501  
1479.000000	99.961232  
1478.000000	99.957877  
1477.000000	99.951904  
1476.000000	99.939952  
1475.000000	99.924509  
1474.000000	99.908356  
1473.000000	99.886946  
1472.000000	99.857734  
1471.000000	99.823547  
1470.000000	99.783427  
1469.000000	99.735413  
1468.000000	99.681589  
1467.000000	99.627580  
1466.000000	99.574540  
1465.000000	99.517838  
1464.000000	99.458084  
1463.000000	99.396306  
1462.000000	99.328232  
1461.000000	99.248031  
1460.000000	99.153046  
1459.000000	99.035996  
1458.000000	98.876588  
1457.000000	98.684051  
1456.000000	98.526867  
1455.000000	98.442306  
1454.000000	98.405451  
1453.000000	98.388857  
1452.000000	98.380216  
1451.000000	98.373777  
1450.000000	98.368693  
1449.000000	98.373902  
1448.000000	98.402688  
1447.000000	98.463567  
1446.000000	98.551369  
1445.000000	98.656811  
1444.000000	98.774089  
1443.000000	98.896950  
1442.000000	99.017236  
1441.000000	99.124290  
1440.000000	99.210309  
1439.000000	99.276199  
1438.000000	99.333544  
1437.000000	99.391342  
1436.000000	99.448633  
1435.000000	99.497347  
1434.000000	99.534503  
1433.000000	99.567081  
1432.000000	99.602928  
1431.000000	99.641855  
1430.000000	99.677613  
1429.000000	99.705462  
1428.000000	99.722934  
1427.000000	99.731765  
1426.000000	99.732999  
1425.000000	99.722738  
1424.000000	99.694325  
1423.000000	99.643833  
1422.000000	99.571990  
1421.000000	99.476861  
1420.000000	99.347126  
1419.000000	99.173928  
1418.000000	98.970998  
1417.000000	98.751223  
1416.000000	98.507104  
1415.000000	98.227997  
1414.000000	97.913667  
1413.000000	97.579347  
1412.000000	97.257438  
1411.000000	96.985150  
1410.000000	96.783308  
1409.000000	96.655126  
1408.000000	96.603692  
1407.000000	96.638323  
1406.000000	96.757032  
1405.000000	96.937808  
1404.000000	97.149038  
1403.000000	97.361733  
1402.000000	97.561928  
1401.000000	97.753792  
1400.000000	97.946506  
1399.000000	98.136615  
1398.000000	98.310415  
1397.000000	98.461980  
1396.000000	98.596457  
1395.000000	98.718046  
1394.000000	98.823789  
1393.000000	98.911549  
1392.000000	98.983545  
1391.000000	99.042189  
1390.000000	99.088978  
1389.000000	99.126612  
1388.000000	99.157994  
1387.000000	99.183474  
1386.000000	99.198209  
1385.000000	99.193717  
1384.000000	99.166232  
1383.000000	99.122573  
1382.000000	99.079673  
1381.000000	99.055118  
1380.000000	99.057056  
1379.000000	99.081111  
1378.000000	99.113643  
1377.000000	99.140816  
1376.000000	99.157548  
1375.000000	99.168337  
1374.000000	99.179189  
1373.000000	99.190542  
1372.000000	99.197266  
1371.000000	99.195576  
1370.000000	99.181846  
1369.000000	99.147632  
1368.000000	99.084303  
1367.000000	98.992301  
1366.000000	98.879684  
1365.000000	98.747789  
1364.000000	98.581765  
1363.000000	98.360763  
1362.000000	98.078228  
1361.000000	97.741570  
1360.000000	97.354583  
1359.000000	96.916956  
1358.000000	96.441075  
1357.000000	95.962815  
1356.000000	95.535732  
1355.000000	95.212899  
1354.000000	95.026211  
1353.000000	94.978039  
1352.000000	95.050540  
1351.000000	95.221262  
1350.000000	95.463883  
1349.000000	95.744027  
1348.000000	96.026918  
1347.000000	96.291550  
1346.000000	96.534762  
1345.000000	96.760766  
1344.000000	96.969861  
1343.000000	97.158428  
1342.000000	97.327111  
1341.000000	97.484141  
1340.000000	97.638844  
1339.000000	97.792975  
1338.000000	97.940999  
1337.000000	98.079089  
1336.000000	98.210429  
1335.000000	98.341406  
1334.000000	98.475222  
1333.000000	98.609507  
1332.000000	98.738609  
1331.000000	98.858427  
1330.000000	98.969744  
1329.000000	99.076761  
1328.000000	99.181634  
1327.000000	99.282105  
1326.000000	99.374096  
1325.000000	99.454986  
1324.000000	99.522696  
1323.000000	99.572954  
1322.000000	99.600281  
1321.000000	99.600652  
1320.000000	99.571363  
1319.000000	99.508942  
1318.000000	99.408488  
1317.000000	99.263620  
1316.000000	99.066017  
1315.000000	98.806350  
1314.000000	98.477559  
1313.000000	98.078931  
1312.000000	97.620142  
1311.000000	97.125716  
1310.000000	96.637606  
1309.000000	96.211669  
1308.000000	95.903569  
1307.000000	95.747064  
1306.000000	95.739516  
1305.000000	95.849615  
1304.000000	96.036937  
1303.000000	96.262909  
1302.000000	96.493609  
1301.000000	96.704441  
1300.000000	96.884844  
1299.000000	97.035869  
1298.000000	97.163340  
1297.000000	97.273024  
1296.000000	97.368805  
1295.000000	97.451844  
1294.000000	97.521675  
1293.000000	97.579508  
1292.000000	97.629612  
1291.000000	97.676864  
1290.000000	97.724571  
1289.000000	97.775429  
1288.000000	97.832216  
1287.000000	97.895347  
1286.000000	97.961094  
1285.000000	98.024304  
1284.000000	98.082513  
1283.000000	98.137191  
1282.000000	98.192697  
1281.000000	98.253806  
1280.000000	98.321574  
1279.000000	98.390475  
1278.000000	98.452381  
1277.000000	98.505060  
1276.000000	98.554736  
1275.000000	98.609371  
1274.000000	98.672163  
1273.000000	98.742885  
1272.000000	98.821220  
1271.000000	98.904400  
1270.000000	98.983696  
1269.000000	99.048600  
1268.000000	99.095581  
1267.000000	99.130135  
1266.000000	99.159888  
1265.000000	99.188069  
1264.000000	99.214854  
1263.000000	99.242796  
1262.000000	99.277633  
1261.000000	99.322473  
1260.000000	99.372693  
1259.000000	99.418634  
1258.000000	99.454390  
1257.000000	99.483243  
1256.000000	99.513676  
1255.000000	99.550742  
1254.000000	99.591733  
1253.000000	99.629027  
1252.000000	99.655519  
1251.000000	99.667878  
1250.000000	99.667190  
1249.000000	99.657979  
1248.000000	99.646177  
1247.000000	99.636581  
1246.000000	99.630578  
1245.000000	99.624608  
1244.000000	99.610124  
1243.000000	99.577042  
1242.000000	99.520653  
1241.000000	99.446683  
1240.000000	99.368778  
1239.000000	99.300281  
1238.000000	99.248754  
1237.000000	99.218794  
1236.000000	99.217810  
1235.000000	99.254670  
1234.000000	99.331096  
1233.000000	99.437289  
1232.000000	99.558838  
1231.000000	99.687806  
1230.000000	99.825654  
1229.000000	99.974675  
1228.000000	100.128353 
1227.000000	100.273604 
1226.000000	100.403330 
1225.000000	100.523049 
1224.000000	100.642281 
1223.000000	100.761511 
1222.000000	100.870338 
1221.000000	100.957430 
1220.000000	101.021406 
1219.000000	101.074423 
1218.000000	101.135902 
1217.000000	101.218837 
1216.000000	101.319492 
1215.000000	101.421948 
1214.000000	101.513298 
1213.000000	101.591820 
1212.000000	101.660825 
1211.000000	101.721389 
1210.000000	101.774509 
1209.000000	101.824425 
1208.000000	101.874491 
1207.000000	101.922902 
1206.000000	101.966514 
1205.000000	102.006121 
1204.000000	102.044960 
1203.000000	102.085222 
1202.000000	102.128281 
1201.000000	102.173846 
1200.000000	102.216312 
1199.000000	102.248203 
1198.000000	102.272475 
1197.000000	102.305902 
1196.000000	102.363317 
1195.000000	102.441475 
1194.000000	102.524102 
1193.000000	102.599619 
1192.000000	102.667666 
1191.000000	102.731861 
1190.000000	102.794638 
1189.000000	102.858162 
1188.000000	102.922759 
1187.000000	102.984126 
1186.000000	103.038402 
1185.000000	103.090183 
1184.000000	103.149589 
1183.000000	103.220677 
1182.000000	103.297278 
1181.000000	103.370188 
1180.000000	103.433800 
1179.000000	103.486348 
1178.000000	103.529631 
1177.000000	103.569353 
1176.000000	103.610623 
1175.000000	103.651405 
1174.000000	103.683717 
1173.000000	103.701879 
1172.000000	103.706276 
1171.000000	103.699362 
1170.000000	103.682700 
1169.000000	103.658924 
1168.000000	103.632637 
1167.000000	103.607699 
1166.000000	103.586524 
1165.000000	103.572620 
1164.000000	103.569031 
1163.000000	103.571036 
1162.000000	103.564076 
1161.000000	103.533803 
1160.000000	103.477598 
1159.000000	103.403404 
1158.000000	103.317983 
1157.000000	103.219265 
1156.000000	103.100140 
1155.000000	102.956360 
1154.000000	102.789737 
1153.000000	102.607293 
1152.000000	102.420661 
1151.000000	102.245085 
1150.000000	102.095806 
1149.000000	101.984305 
1148.000000	101.916309 
1147.000000	101.889129 
1146.000000	101.889928 
1145.000000	101.900590 
1144.000000	101.906522 
1143.000000	101.900060 
1142.000000	101.878051 
1141.000000	101.842039 
1140.000000	101.801639 
1139.000000	101.771023 
1138.000000	101.756502 
1137.000000	101.749815 
1136.000000	101.737383 
1135.000000	101.714497 
1134.000000	101.687805 
1133.000000	101.666313 
1132.000000	101.653963 
1131.000000	101.649812 
1130.000000	101.650717 
1129.000000	101.651646 
1128.000000	101.643966 
1127.000000	101.614987 
1126.000000	101.552517 
1125.000000	101.453764 
1124.000000	101.329148 
1123.000000	101.190862 
1122.000000	101.032032 
1121.000000	100.818235 
1120.000000	100.503514 
1119.000000	100.058971 
1118.000000	99.495633  
1117.000000	98.874193  
1116.000000	98.297484  
1115.000000	97.874988  
1114.000000	97.668563  
1113.000000	97.665970  
1112.000000	97.808462  
1111.000000	98.035420  
1110.000000	98.301906  
1109.000000	98.573499  
1108.000000	98.824426  
1107.000000	99.042703  
1106.000000	99.228763  
1105.000000	99.386399  
1104.000000	99.518231  
1103.000000	99.628048  
1102.000000	99.721126  
1101.000000	99.801876  
1100.000000	99.875534  
1099.000000	99.950583  
1098.000000	100.032175 
1097.000000	100.112323 
1096.000000	100.174157 
1095.000000	100.209674 
1094.000000	100.229358 
1093.000000	100.251466 
1092.000000	100.285250 
1091.000000	100.326163 
1090.000000	100.363013 
1089.000000	100.387318 
1088.000000	100.399020 
1087.000000	100.406031 
1086.000000	100.416629 
1085.000000	100.431539 
1084.000000	100.446369 
1083.000000	100.461485 
1082.000000	100.483886 
1081.000000	100.517197 
1080.000000	100.554931 
1079.000000	100.587658 
1078.000000	100.614228 
1077.000000	100.642896 
1076.000000	100.683743 
1075.000000	100.741704 
1074.000000	100.812591 
1073.000000	100.882469 
1072.000000	100.935306 
1071.000000	100.967448 
1070.000000	100.993232 
1069.000000	101.030772 
1068.000000	101.082609 
1067.000000	101.134192 
1066.000000	101.169573 
1065.000000	101.183554 
1064.000000	101.180478 
1063.000000	101.170010 
1062.000000	101.166831 
1061.000000	101.187124 
1060.000000	101.238126 
1059.000000	101.310322 
1058.000000	101.382379 
1057.000000	101.435188 
1056.000000	101.462774 
1055.000000	101.473931 
1054.000000	101.485816 
1053.000000	101.512954 
1052.000000	101.559208 
1051.000000	101.621549 
1050.000000	101.703055 
1049.000000	101.818333 
1048.000000	101.981470 
1047.000000	102.191399 
1046.000000	102.435116 
1045.000000	102.703662 
1044.000000	102.997000 
1043.000000	103.310267 
1042.000000	103.620343 
1041.000000	103.891821 
1040.000000	104.097721 
1039.000000	104.234265 
1038.000000	104.315650 
1037.000000	104.354187 
1036.000000	104.345854 
1035.000000	104.274492 
1034.000000	104.127405 
1033.000000	103.907259 
1032.000000	103.634107 
1031.000000	103.338099 
1030.000000	103.045193 
1029.000000	102.767599 
1028.000000	102.511143 
1027.000000	102.288562 
1026.000000	102.116029 
1025.000000	101.995364 
1024.000000	101.906975 
1023.000000	101.821368 
1022.000000	101.710662 
1021.000000	101.549071 
1020.000000	101.316365 
1019.000000	101.015029 
1018.000000	100.683431 
1017.000000	100.383368 
1016.000000	100.169743 
1015.000000	100.066428 
1014.000000	100.061402 
1013.000000	100.120090 
1012.000000	100.206007 
1011.000000	100.294765 
1010.000000	100.375152 
1009.000000	100.442427 
1008.000000	100.494032 
1007.000000	100.531542 
1006.000000	100.562329 
1005.000000	100.594862 
1004.000000	100.631375 
1003.000000	100.665423 
1002.000000	100.686395 
1001.000000	100.687660 
1000.000000	100.673198 
999.000000	 100.656568 
998.000000	 100.649221 
997.000000	 100.647965 
996.000000	 100.638196 
995.000000	 100.612209 
994.000000	 100.579567 
993.000000	 100.554487 
992.000000	 100.537194 
991.000000	 100.515621 
990.000000	 100.484621 
989.000000	 100.454449 
988.000000	 100.436092 
987.000000	 100.424290 
986.000000	 100.401817 
985.000000	 100.359362 
984.000000	 100.306348 
983.000000	 100.262098 
982.000000	 100.239659 
981.000000	 100.238098 
980.000000	 100.246580 
979.000000	 100.254044 
978.000000	 100.258104 
977.000000	 100.267705 
976.000000	 100.296021 
975.000000	 100.348671 
974.000000	 100.419620 
973.000000	 100.499045 
972.000000	 100.581210 
971.000000	 100.661413 
970.000000	 100.729780 
969.000000	 100.775954 
968.000000	 100.800663 
967.000000	 100.815998 
966.000000	 100.830694 
965.000000	 100.840287 
964.000000	 100.837114 
963.000000	 100.826141 
962.000000	 100.822767 
961.000000	 100.834603 
960.000000	 100.852265 
959.000000	 100.860359 
958.000000	 100.851820 
957.000000	 100.827798 
956.000000	 100.788993 
955.000000	 100.734629 
954.000000	 100.668895 
953.000000	 100.601499 
952.000000	 100.539425 
951.000000	 100.481206 
950.000000	 100.420930 
949.000000	 100.355758 
948.000000	 100.288434 
947.000000	 100.225458 
946.000000	 100.175992 
945.000000	 100.150748 
944.000000	 100.156502 
943.000000	 100.188571 
942.000000	 100.230998 
941.000000	 100.267382 
940.000000	 100.290757 
939.000000	 100.302385 
938.000000	 100.305422 
937.000000	 100.304060 
936.000000	 100.305557 
935.000000	 100.315517 
934.000000	 100.330003 
933.000000	 100.338142 
932.000000	 100.334293 
931.000000	 100.322293 
930.000000	 100.305781 
929.000000	 100.280739 
928.000000	 100.241283 
927.000000	 100.185821 
926.000000	 100.110864 
925.000000	 100.004560 
924.000000	 99.855822  
923.000000	 99.668263  
922.000000	 99.458055  
921.000000	 99.241983  
920.000000	 99.038538  
919.000000	 98.878287  
918.000000	 98.796917  
917.000000	 98.809697  
916.000000	 98.898160  
915.000000	 99.025094  
914.000000	 99.158979  
913.000000	 99.284700  
912.000000	 99.400520  
911.000000	 99.513061  
910.000000	 99.631407  
909.000000	 99.756741  
908.000000	 99.876117  
907.000000	 99.971382  
906.000000	 100.035676 
905.000000	 100.077880 
904.000000	 100.110714 
903.000000	 100.138045 
902.000000	 100.154200 
901.000000	 100.152408 
900.000000	 100.132596 
899.000000	 100.102626 
898.000000	 100.072508 
897.000000	 100.046870 
896.000000	 100.023946 
895.000000	 100.001999 
894.000000	 99.983626  
893.000000	 99.971501  
892.000000	 99.962288  
891.000000	 99.948399  
890.000000	 99.925810  
889.000000	 99.898319  
888.000000	 99.874516  
887.000000	 99.861399  
886.000000	 99.858977  
885.000000	 99.859738  
884.000000	 99.855864  
883.000000	 99.849548  
882.000000	 99.853798  
881.000000	 99.879106  
880.000000	 99.920740  
879.000000	 99.963294  
878.000000	 99.997068  
877.000000	 100.024816 
876.000000	 100.051279 
875.000000	 100.072202 
874.000000	 100.078034 
873.000000	 100.065003 
872.000000	 100.037745 
871.000000	 100.002538 
870.000000	 99.962636  
869.000000	 99.921102  
868.000000	 99.884547  
867.000000	 99.860050  
866.000000	 99.847429  
865.000000	 99.836561  
864.000000	 99.814433  
863.000000	 99.774731  
862.000000	 99.718738  
861.000000	 99.645894  
860.000000	 99.544662  
859.000000	 99.393107  
858.000000	 99.166162  
857.000000	 98.841224  
856.000000	 98.402945  
855.000000	 97.855528  
854.000000	 97.240426  
853.000000	 96.641923  
852.000000	 96.165447  
851.000000	 95.893464  
850.000000	 95.847287  
849.000000	 95.986221  
848.000000	 96.240524  
847.000000	 96.543428  
846.000000	 96.844539  
845.000000	 97.114548  
844.000000	 97.346978  
843.000000	 97.549860  
842.000000	 97.729805  
841.000000	 97.885799  
840.000000	 98.018780  
839.000000	 98.139193  
838.000000	 98.257701  
837.000000	 98.371484  
836.000000	 98.466669  
835.000000	 98.533824  
834.000000	 98.576441  
833.000000	 98.605978  
832.000000	 98.634693  
831.000000	 98.672566  
830.000000	 98.723544  
829.000000	 98.782254  
828.000000	 98.839691  
827.000000	 98.893729  
826.000000	 98.948706  
825.000000	 99.004833  
824.000000	 99.057548  
823.000000	 99.109394  
822.000000	 99.169534  
821.000000	 99.235840  
820.000000	 99.290904  
819.000000	 99.324766  
818.000000	 99.351198  
817.000000	 99.389326  
816.000000	 99.434115  
815.000000	 99.458417  
814.000000	 99.445104  
813.000000	 99.406508  
812.000000	 99.369058  
811.000000	 99.348381  
810.000000	 99.344424  
809.000000	 99.353004  
808.000000	 99.373467  
807.000000	 99.406193  
806.000000	 99.448351  
805.000000	 99.494313  
804.000000	 99.540550  
803.000000	 99.590445  
802.000000	 99.651466  
801.000000	 99.723325  
800.000000	 99.790714  
799.000000	 99.835286  
798.000000	 99.856844  
797.000000	 99.875553  
796.000000	 99.909189  
795.000000	 99.953121  
794.000000	 99.985397  
793.000000	 99.986625  
792.000000	 99.952780  
791.000000	 99.896012  
790.000000	 99.838380  
789.000000	 99.798160  
788.000000	 99.774632  
787.000000	 99.749251  
786.000000	 99.707512  
785.000000	 99.656392  
784.000000	 99.613807  
783.000000	 99.584422  
782.000000	 99.554511  
781.000000	 99.509223  
780.000000	 99.444315  
779.000000	 99.357962  
778.000000	 99.241190  
777.000000	 99.085658  
776.000000	 98.898983  
775.000000	 98.705198  
774.000000	 98.527066  
773.000000	 98.370229  
772.000000	 98.226760  
771.000000	 98.093336  
770.000000	 97.984836  
769.000000	 97.930375  
768.000000	 97.956601  
767.000000	 98.072736  
766.000000	 98.265386  
765.000000	 98.500634  
764.000000	 98.731291  
763.000000	 98.914884  
762.000000	 99.039019  
761.000000	 99.127746  
760.000000	 99.211623  
759.000000	 99.291440  
758.000000	 99.342923  
757.000000	 99.358314  
756.000000	 99.367153  
755.000000	 99.404950  
754.000000	 99.471638  
753.000000	 99.536057  
752.000000	 99.578308  
751.000000	 99.611699  
750.000000	 99.658198  
749.000000	 99.714973  
748.000000	 99.757393  
747.000000	 99.772603  
746.000000	 99.778480  
745.000000	 99.802769  
744.000000	 99.848636  
743.000000	 99.890332  
742.000000	 99.905091  
741.000000	 99.901189  
740.000000	 99.907281  
739.000000	 99.938946  
738.000000	 99.985670  
737.000000	 100.030120 
736.000000	 100.069510 
735.000000	 100.113296 
734.000000	 100.166922 
733.000000	 100.224010 
732.000000	 100.270729 
731.000000	 100.293932 
730.000000	 100.290593 
729.000000	 100.275866 
728.000000	 100.278541 
727.000000	 100.319253 
726.000000	 100.391386 
725.000000	 100.467784 
724.000000	 100.524504 
723.000000	 100.552796 
722.000000	 100.552307 
721.000000	 100.525874 
720.000000	 100.484449 
719.000000	 100.444816 
718.000000	 100.416058 
717.000000	 100.394062 
716.000000	 100.367988 
715.000000	 100.326437 
714.000000	 100.262045 
713.000000	 100.180840 
712.000000	 100.107357 
711.000000	 100.067579 
710.000000	 100.061541 
709.000000	 100.063036 
708.000000	 100.051989 
707.000000	 100.034882 
706.000000	 100.024321 
705.000000	 100.014093 
704.000000	 99.991213  
703.000000	 99.962817  
702.000000	 99.951300  
701.000000	 99.962472  
700.000000	 99.976231  
699.000000	 99.975991  
698.000000	 99.973150  
697.000000	 99.992926  
696.000000	 100.041585 
695.000000	 100.096067 
694.000000	 100.128796 
693.000000	 100.137512 
692.000000	 100.146362 
691.000000	 100.176339 
690.000000	 100.216217 
689.000000	 100.232208 
688.000000	 100.210509 
687.000000	 100.177877 
686.000000	 100.169325 
685.000000	 100.188453 
684.000000	 100.216802 
683.000000	 100.248909 
682.000000	 100.289862 
681.000000	 100.323969 
680.000000	 100.319443 
679.000000	 100.282709 
678.000000	 100.274146 
677.000000	 100.348458 
676.000000	 100.493672 
675.000000	 100.637539 
674.000000	 100.718330 
673.000000	 100.737798 
672.000000	 100.730904 
671.000000	 100.729433 
670.000000	 100.747533 
669.000000	 100.815223 
668.000000	 100.913358 
667.000000	 100.920120 
666.000000	 100.834434 
665.000000	 100.732843 
664.000000	 100.634878 
663.000000	 100.556304 
662.000000	 100.517706 
661.000000	 100.506382 
660.000000	 100.493150 
659.000000	 100.464817 
658.000000	 100.428830 
657.000000	 100.377939 
656.000000	 100.294221 
655.000000	 100.136945 
654.000000	 99.921120  
653.000000	 99.627699  
652.000000	 99.356450  
651.000000	 98.940981  
650.000000	 98.263656  

